# Created by:        SpecsLab Prodigy, Version 4.60.2-r85849 
#
# XY-Serializer Export Settings:
#   Comment Prefix:           #
#   Output meta data:         yes
#   Energy Axis:              Binding Energy
#   Count Rate:               Counts per Second
#   Separate Scan Data:       no
#   Separate Channel Data:    no
#   External Channel Data:    yes
#   Transmission Function:    no
#   ErrorBar:                 no
#   Operation Results:        yes
#   Time Zone Format:         UTC
#
# Group:             Spectrum Group
#
# Region:            C1s
# Acquisition Date:  12/20/21 14:07:09 UTC
# Analysis Method:   XPS
# Analyzer:          Phoibos 100 R6
# Analyzer Lens:     LargeArea:1.5kV
# Analyzer Slit:     1:0.2x20\B:open
# Scan Mode:         FixedAnalyzerTransmission
# Curves/Scan:       1
# Values/Curve:      131
# Dwell Time:        0.8
# Excitation Energy: 1486.61
# Binding Energy:    295
# Pass Energy:       30
# Bias Voltage:      90
# Detector Voltage:  2600
# Eff. Workfunction: 4.309
# Source:            X-Ray Dummy
# Comment:           
#
# Cycle: 0
# Number of Scans: 6
#
# Cycle: 0, Curve: 0
# Acquisition Date: 12/20/21 14:07:09 UTC
#
# ColumnLabels: energy counts/s
#
295  997.5
294.9  1012.5
294.8  1031.4583
294.7  1031.4583
294.6  1027.7083
294.5  1038.5417
294.4  1008.75
294.3  1029.1667
294.2  1045
294.1  1007.0833
294  1003.9583
293.9  1021.0417
293.8  1030
293.7  1016.4583
293.6  1002.2917
293.5  1018.75
293.4  1028.5417
293.3  1022.7083
293.2  1048.3333
293.1  1012.2917
293  997.29167
292.9  1023.9583
292.8  1025
292.7  1037.0833
292.6  1017.7083
292.5  1019.7917
292.4  1024.5833
292.3  1001.6667
292.2  1051.0417
292.1  1039.1667
292  1046.4583
291.9  1033.5417
291.8  1036.875
291.7  1045
291.6  1050
291.5  1037.5
291.4  1063.3333
291.3  1053.125
291.2  1043.75
291.1  1052.9167
291  1050.625
290.9  1066.0417
290.8  1081.4583
290.7  1053.3333
290.6  1063.9583
290.5  1084.7917
290.4  1107.0833
290.3  1090.625
290.2  1122.9167
290.1  1124.7917
290  1123.3333
289.9  1134.1667
289.8  1125.4167
289.7  1122.7083
289.6  1115.4167
289.5  1129.5833
289.4  1148.3333
289.3  1134.7917
289.2  1116.25
289.1  1140.2083
289  1151.6667
288.9  1135.625
288.8  1135.8333
288.7  1156.6667
288.6  1169.1667
288.5  1087.0833
288.4  1135.2083
288.3  1111.4583
288.2  1116.4583
288.1  1136.25
288  1118.3333
287.9  1144.5833
287.8  1106.25
287.7  1091.25
287.6  1089.7917
287.5  1107.0833
287.4  1107.2917
287.3  1111.6667
287.2  1109.5833
287.1  1141.4583
287  1140
286.9  1120.4167
286.8  1137.0833
286.7  1165
286.6  1180.4167
286.5  1194.5833
286.4  1215.2083
286.3  1205.8333
286.2  1265.2083
286.1  1238.75
286  1276.875
285.9  1302.7083
285.8  1316.4583
285.7  1338.5417
285.6  1330.625
285.5  1380
285.4  1349.375
285.3  1352.2917
285.2  1347.9167
285.1  1372.7083
285  1361.4583
284.9  1353.125
284.8  1298.75
284.7  1280.4167
284.6  1274.5833
284.5  1263.9583
284.4  1206.4583
284.3  1217.5
284.2  1154.1667
284.1  1144.375
284  1128.9583
283.9  1126.0417
283.8  1084.5833
283.7  1081.4583
283.6  1067.5
283.5  1058.3333
283.4  1049.1667
283.3  1039.5833
283.2  980
283.1  970.41667
283  988.54167
282.9  999.79167
282.8  1000.2083
282.7  1000
282.6  981.25
282.5  991.25
282.4  982.91667
282.3  977.91667
282.2  973.125
282.1  990.83333
282  966.25

# Region:            N1s
# Acquisition Date:  12/20/21 14:08:56 UTC
# Analysis Method:   XPS
# Analyzer:          Phoibos 100 R6
# Analyzer Lens:     LargeArea:1.5kV
# Analyzer Slit:     1:0.2x20\B:open
# Scan Mode:         FixedAnalyzerTransmission
# Curves/Scan:       1
# Values/Curve:      131
# Dwell Time:        0.8
# Excitation Energy: 1486.61
# Binding Energy:    408
# Pass Energy:       30
# Bias Voltage:      90
# Detector Voltage:  2600
# Eff. Workfunction: 4.309
# Source:            X-Ray Dummy
# Comment:           
#
# Cycle: 0
# Number of Scans: 6
#
# Cycle: 0, Curve: 0
# Acquisition Date: 12/20/21 14:08:56 UTC
#
# ColumnLabels: energy counts/s
#
408  1112.2917
407.9  1138.5417
407.8  1111.25
407.7  1113.75
407.6  1131.25
407.5  1115.2083
407.4  1113.75
407.3  1135.4167
407.2  1096.25
407.1  1124.1667
407  1126.875
406.9  1126.25
406.8  1097.9167
406.7  1125.8333
406.6  1112.9167
406.5  1109.7917
406.4  1142.0833
406.3  1170.2083
406.2  1113.75
406.1  1107.9167
406  1118.125
405.9  1121.6667
405.8  1131.4583
405.7  1142.7083
405.6  1116.6667
405.5  1131.0417
405.4  1123.75
405.3  1139.5833
405.2  1162.0833
405.1  1151.875
405  1128.125
404.9  1127.5
404.8  1166.875
404.7  1119.375
404.6  1124.5833
404.5  1157.7083
404.4  1147.2917
404.3  1148.3333
404.2  1152.2917
404.1  1165.4167
404  1140.8333
403.9  1132.5
403.8  1149.375
403.7  1278.9583
403.6  1163.75
403.5  1142.7083
403.4  1171.25
403.3  1148.9583
403.2  1150.4167
403.1  1140
403  1133.125
402.9  1175
402.8  1160
402.7  1142.5
402.6  1172.7083
402.5  1165.2083
402.4  1181.0417
402.3  1105.625
402.2  1153.5417
402.1  1142.2917
402  1148.125
401.9  1141.0417
401.8  1141.25
401.7  1147.9167
401.6  1121.6667
401.5  1149.375
401.4  1137.2917
401.3  1105.4167
401.2  1197.2917
401.1  1133.5417
401  1140.625
400.9  1146.4583
400.8  1154.1667
400.7  1134.1667
400.6  1156.4583
400.5  1144.5833
400.4  1124.1667
400.3  1135.2083
400.2  1138.75
400.1  1122.5
400  1129.7917
399.9  1135
399.8  1153.125
399.7  1154.375
399.6  1126.6667
399.5  1135.2083
399.4  1115.2083
399.3  1142.7083
399.2  1119.1667
399.1  1146.4583
399  1101.875
398.9  1128.3333
398.8  1145.625
398.7  1129.5833
398.6  1109.5833
398.5  1141.4583
398.4  1115.625
398.3  1110.625
398.2  1113.9583
398.1  1096.875
398  1117.7083
397.9  1092.2917
397.8  1129.7917
397.7  1131.875
397.6  1116.6667
397.5  1110.2083
397.4  1100.4167
397.3  1089.375
397.2  1101.0417
397.1  1117.9167
397  1096.4583
396.9  1121.0417
396.8  1110.2083
396.7  1075
396.6  1129.375
396.5  1090
396.4  1064.5833
396.3  1107.2917
396.2  1085.4167
396.1  1105
396  1115.625
395.9  1092.2917
395.8  1136.25
395.7  1087.2917
395.6  1119.5833
395.5  1119.7917
395.4  1092.7083
395.3  1121.4583
395.2  1122.9167
395.1  1107.2917
395  1114.1667

# Region:            Si2p
# Acquisition Date:  12/20/21 14:01:50 UTC
# Analysis Method:   XPS
# Analyzer:          Phoibos 100 R6
# Analyzer Lens:     LargeArea:1.5kV
# Analyzer Slit:     1:0.2x20\B:open
# Scan Mode:         FixedAnalyzerTransmission
# Curves/Scan:       1
# Values/Curve:      141
# Dwell Time:        0.8
# Excitation Energy: 1486.61
# Binding Energy:    112
# Pass Energy:       30
# Bias Voltage:      90
# Detector Voltage:  2600
# Eff. Workfunction: 4.309
# Source:            X-Ray Dummy
# Comment:           
#
# Cycle: 0
# Number of Scans: 4
#
# Cycle: 0, Curve: 0
# Acquisition Date: 12/20/21 14:01:50 UTC
#
# ColumnLabels: energy counts/s
#
112  579.6875
111.9  587.5
111.8  602.1875
111.7  552.1875
111.6  555.625
111.5  580.625
111.4  575.9375
111.3  602.1875
111.2  585.9375
111.1  630.3125
111  620.9375
110.9  612.1875
110.8  627.1875
110.7  643.75
110.6  672.5
110.5  647.8125
110.4  707.5
110.3  692.1875
110.2  725.9375
110.1  778.4375
110  773.125
109.9  855.9375
109.8  865.9375
109.7  914.0625
109.6  1005.625
109.5  1063.75
109.4  1106.875
109.3  1209.0625
109.2  1296.5625
109.1  1366.25
109  1447.1875
108.9  1558.4375
108.8  1620.3125
108.7  1681.875
108.6  1788.125
108.5  1815.9375
108.4  1898.4375
108.3  1962.1875
108.2  1984.6875
108.1  2001.5625
108  1976.5625
107.9  1954.0625
107.8  1941.25
107.7  1854.0625
107.6  1805
107.5  1790.3125
107.4  1720.3125
107.3  1623.125
107.2  1508.125
107.1  1434.6875
107  1368.75
106.9  1240.625
106.8  1167.1875
106.7  1117.1875
106.6  1024.6875
106.5  965
106.4  910
106.3  841.25
106.2  811.25
106.1  774.0625
106  748.125
105.9  693.125
105.8  660.3125
105.7  641.25
105.6  641.875
105.5  635.625
105.4  607.1875
105.3  594.6875
105.2  566.875
105.1  594.375
105  605.625
104.9  547.8125
104.8  567.8125
104.7  561.875
104.6  578.125
104.5  580.625
104.4  561.5625
104.3  557.1875
104.2  556.875
104.1  560.9375
104  524.375
103.9  535.625
103.8  546.25
103.7  548.125
103.6  537.8125
103.5  550
103.4  527.5
103.3  546.25
103.2  534.6875
103.1  550.3125
103  529.375
102.9  543.75
102.8  513.75
102.7  557.8125
102.6  537.5
102.5  535.9375
102.4  538.125
102.3  557.5
102.2  533.75
102.1  546.25
102  524.375
101.9  551.875
101.8  531.5625
101.7  551.25
101.6  550.3125
101.5  536.25
101.4  547.1875
101.3  519.6875
101.2  524.375
101.1  539.6875
101  519.375
100.9  531.5625
100.8  530.9375
100.7  514.375
100.6  535.3125
100.5  522.8125
100.4  535.3125
100.3  532.1875
100.2  520
100.1  542.5
100  543.75
99.9  559.0625
99.8  548.75
99.7  560.3125
99.6  553.125
99.5  571.25
99.4  577.1875
99.3  557.8125
99.2  581.875
99.1  566.5625
99  588.75
98.9  603.4375
98.8  591.875
98.7  618.125
98.6  626.5625
98.5  603.125
98.4  609.6875
98.3  624.375
98.2  607.5
98.1  582.5
98  623.75

# Region:            O1s
# Acquisition Date:  12/20/21 13:50:55 UTC
# Analysis Method:   XPS
# Analyzer:          Phoibos 100 R6
# Analyzer Lens:     LargeArea:1.5kV
# Analyzer Slit:     1:0.2x20\B:open
# Scan Mode:         FixedAnalyzerTransmission
# Curves/Scan:       1
# Values/Curve:      171
# Dwell Time:        0.8
# Excitation Energy: 1486.61
# Binding Energy:    545
# Pass Energy:       30
# Bias Voltage:      90
# Detector Voltage:  2600
# Eff. Workfunction: 4.309
# Source:            X-Ray Dummy
# Comment:           
#
# Cycle: 0
# Number of Scans: 2
#
# Cycle: 0, Curve: 0
# Acquisition Date: 12/20/21 13:50:55 UTC
#
# ColumnLabels: energy counts/s
#
545  1620
544.9  1598.75
544.8  1611.25
544.7  1563.125
544.6  1606.25
544.5  1601.25
544.4  1566.25
544.3  1555
544.2  1588.75
544.1  1560
544  1651.875
543.9  1576.25
543.8  1561.875
543.7  1565.625
543.6  1593.125
543.5  1558.125
543.4  1578.125
543.3  1568.125
543.2  1589.375
543.1  1563.75
543  1525
542.9  1593.125
542.8  1555.625
542.7  1612.5
542.6  1587.5
542.5  1590
542.4  1583.125
542.3  1656.875
542.2  1590
542.1  1611.875
542  1636.25
541.9  1612.5
541.8  1663.125
541.7  1693.125
541.6  1664.375
541.5  1706.25
541.4  1761.875
541.3  1745
541.2  1747.5
541.1  1708.125
541  1790
540.9  1772.5
540.8  1858.75
540.7  1832.5
540.6  1915.625
540.5  1881.25
540.4  1957.5
540.3  1918.125
540.2  2005.625
540.1  2161.875
540  2210.625
539.9  2251.875
539.8  2342.5
539.7  2513.75
539.6  2620
539.5  2840.625
539.4  3040
539.3  3235.625
539.2  3425
539.1  3765.625
539  4132.5
538.9  4510.625
538.8  4961.25
538.7  5443.125
538.6  5950.625
538.5  6426.25
538.4  7095.625
538.3  7647.5
538.2  8248.75
538.1  8683.75
538  9426.875
537.9  9766.25
537.8  10248.75
537.7  10632.5
537.6  11051.25
537.5  11084.375
537.4  11226.875
537.3  11205
537.2  10913.75
537.1  10821.25
537  10476.25
536.9  10021.25
536.8  9470.625
536.7  8989.375
536.6  8477.5
536.5  7773.75
536.4  7140
536.3  6550
536.2  5799.375
536.1  5385
536  4910
535.9  4457.5
535.8  4043.125
535.7  3673.75
535.6  3267.5
535.5  3059.375
535.4  2873.75
535.3  2537.5
535.2  2391.25
535.1  2310.625
535  2205.625
534.9  2097.5
534.8  1968.75
534.7  1936.875
534.6  1809.375
534.5  1819.375
534.4  1795.625
534.3  1760.625
534.2  1756.25
534.1  1690.625
534  1691.875
533.9  1677.5
533.8  1658.75
533.7  1606.875
533.6  1615
533.5  1596.25
533.4  1597.5
533.3  1576.25
533.2  1550
533.1  1527.5
533  1550
532.9  1505
532.8  1542.5
532.7  1568.125
532.6  1591.25
532.5  1520.625
532.4  1594.375
532.3  1478.125
532.2  1550
532.1  1516.25
532  1542.5
531.9  1483.75
531.8  1513.125
531.7  1521.875
531.6  1558.75
531.5  1523.125
531.4  1518.125
531.3  1451.875
531.2  1497.5
531.1  1547.5
531  1538.75
530.9  1531.875
530.8  1493.75
530.7  1435.625
530.6  1458.125
530.5  1491.875
530.4  1464.375
530.3  1435.625
530.2  1460
530.1  1461.25
530  1452.5
529.9  1464.375
529.8  1455
529.7  1477.5
529.6  1493.125
529.5  1476.25
529.4  1438.125
529.3  1565
529.2  1494.375
529.1  1613.125
529  1578.75
528.9  1627.5
528.8  1663.75
528.7  1680.625
528.6  1746.875
528.5  1743.75
528.4  1831.25
528.3  1838.75
528.2  1868.75
528.1  2010.625
528  1970

# Region:            overview
# Acquisition Date:  12/20/21 13:43:08 UTC
# Analysis Method:   XPS
# Analyzer:          Phoibos 100 R6
# Analyzer Lens:     LargeArea:1.5kV
# Analyzer Slit:     1:0.2x20\B:open
# Scan Mode:         FixedAnalyzerTransmission
# Curves/Scan:       1
# Values/Curve:      1205
# Dwell Time:        0.2
# Excitation Energy: 1486.61
# Binding Energy:    1200
# Pass Energy:       50
# Bias Voltage:      90
# Detector Voltage:  2600
# Eff. Workfunction: 4.309
# Source:            X-Ray Dummy
# Comment:           
#
# Cycle: 0
# Number of Scans: 1
#
# Cycle: 0, Curve: 0
# Acquisition Date: 12/20/21 13:43:08 UTC
#
# ColumnLabels: energy counts/s
#
1200  9020
1199  8685
1198  9225
1197  9335
1196  9220
1195  8665
1194  8890
1193  8610
1192  9190
1191  8740
1190  8960
1189  8780
1188  8615
1187  8970
1186  8935
1185  9110
1184  9030
1183  9065
1182  9020
1181  9085
1180  8970
1179  8900
1178  8890
1177  9190
1176  8810
1175  9075
1174  9230
1173  8920
1172  8770
1171  9190
1170  9020
1169  8740
1168  8790
1167  8970
1166  8950
1165  9245
1164  8595
1163  8900
1162  8915
1161  8940
1160  8740
1159  8795
1158  8670
1157  8510
1156  9260
1155  8885
1154  8480
1153  8980
1152  9155
1151  8940
1150  8770
1149  8520
1148  8705
1147  8765
1146  8855
1145  9265
1144  8435
1143  8930
1142  8580
1141  9090
1140  8910
1139  8785
1138  8725
1137  8775
1136  9050
1135  9095
1134  8795
1133  8540
1132  8700
1131  8555
1130  8825
1129  8790
1128  8900
1127  8890
1126  9295
1125  9020
1124  8565
1123  9260
1122  8720
1121  9400
1120  9265
1119  9025
1118  8795
1117  8955
1116  8920
1115  9090
1114  8770
1113  8905
1112  9365
1111  9285
1110  9225
1109  8770
1108  9295
1107  8955
1106  9195
1105  8980
1104  9020
1103  8785
1102  8705
1101  8800
1100  9215
1099  8800
1098  8865
1097  9085
1096  9030
1095  9100
1094  9325
1093  8835
1092  8940
1091  9025
1090  9040
1089  9145
1088  9175
1087  8870
1086  9220
1085  8635
1084  9285
1083  9020
1082  8930
1081  8780
1080  9145
1079  9010
1078  9085
1077  9240
1076  9240
1075  9500
1074  9245
1073  9190
1072  9330
1071  9320
1070  9345
1069  9280
1068  9395
1067  9275
1066  9195
1065  8825
1064  9410
1063  9545
1062  9525
1061  9210
1060  9165
1059  9265
1058  9755
1057  8930
1056  9190
1055  9105
1054  9500
1053  9555
1052  9485
1051  9655
1050  9280
1049  9600
1048  9490
1047  9375
1046  9250
1045  9430
1044  9820
1043  9430
1042  9625
1041  9255
1040  9465
1039  9615
1038  9670
1037  9465
1036  9025
1035  9350
1034  9200
1033  9840
1032  9485
1031  9670
1030  9400
1029  9710
1028  9195
1027  9485
1026  9800
1025  9970
1024  10120
1023  9845
1022  9745
1021  9875
1020  9495
1019  9980
1018  9765
1017  9630
1016  9780
1015  9635
1014  9780
1013  10475
1012  10550
1011  10240
1010  10105
1009  10640
1008  10545
1007  10445
1006  10825
1005  10585
1004  10035
1003  9705
1002  10150
1001  9235
1000  9635
999  8930
998  10005
997  9360
996  9250
995  9190
994  9310
993  9400
992  9745
991  9620
990  9885
989  10720
988  10770
987  11650
986  11860
985  13170
984  12645
983  12460
982  11280
981  10305
980  9755
979  9325
978  8935
977  8590
976  8340
975  8155
974  7780
973  7215
972  7095
971  7230
970  6750
969  6860
968  7140
967  6860
966  6900
965  6850
964  6750
963  7015
962  6615
961  6835
960  6815
959  6855
958  7065
957  6725
956  7240
955  6875
954  6975
953  6990
952  7040
951  6595
950  6845
949  6575
948  6985
947  6560
946  7100
945  6880
944  6665
943  6355
942  7005
941  7235
940  6770
939  6820
938  6830
937  6685
936  6820
935  7190
934  6900
933  6615
932  7030
931  6785
930  6585
929  6975
928  7235
927  6930
926  7230
925  6835
924  6600
923  7305
922  7135
921  7020
920  7170
919  6855
918  7295
917  6700
916  6815
915  7035
914  7290
913  6555
912  6820
911  6985
910  7155
909  6915
908  6860
907  7115
906  6960
905  6615
904  6895
903  6895
902  6845
901  7065
900  6910
899  6715
898  6960
897  6695
896  6895
895  6850
894  6915
893  7405
892  7410
891  7055
890  7050
889  6875
888  6975
887  7040
886  6905
885  6985
884  7055
883  7150
882  6950
881  6835
880  6980
879  7030
878  6745
877  6675
876  6860
875  6940
874  7105
873  7010
872  6775
871  7010
870  6695
869  7235
868  6840
867  6860
866  6830
865  6955
864  7345
863  6935
862  6965
861  7045
860  6885
859  7060
858  7105
857  7030
856  7070
855  6685
854  6835
853  7190
852  6790
851  7035
850  7295
849  7095
848  6980
847  7030
846  6970
845  6935
844  6825
843  7140
842  7175
841  6980
840  7100
839  7270
838  7085
837  7470
836  6820
835  7185
834  6755
833  6670
832  7375
831  7270
830  7350
829  6860
828  6960
827  7035
826  6815
825  7310
824  7055
823  7405
822  7030
821  7170
820  7095
819  7195
818  6790
817  7125
816  6875
815  7280
814  7125
813  7110
812  6875
811  7055
810  7230
809  7380
808  7080
807  6960
806  7405
805  7035
804  7170
803  7195
802  7045
801  7165
800  7420
799  7390
798  7055
797  7170
796  7275
795  7360
794  7170
793  6995
792  7090
791  6960
790  7310
789  7050
788  6890
787  7170
786  7345
785  7050
784  6960
783  6925
782  7250
781  7285
780  7180
779  7185
778  7325
777  7150
776  7275
775  7330
774  6890
773  6825
772  6850
771  7210
770  7280
769  7155
768  7005
767  6965
766  6940
765  7125
764  7090
763  7435
762  7225
761  7070
760  7235
759  7240
758  7380
757  7430
756  7380
755  7360
754  7285
753  6955
752  7535
751  6985
750  7095
749  7590
748  6570
747  7450
746  6920
745  7410
744  7405
743  6685
742  7095
741  7250
740  7185
739  6995
738  7285
737  7345
736  7260
735  7470
734  7290
733  7350
732  7510
731  6960
730  7535
729  7110
728  7420
727  7245
726  7050
725  7200
724  7430
723  7175
722  7075
721  7580
720  6970
719  7590
718  7425
717  7205
716  7620
715  7065
714  6975
713  7305
712  7265
711  7215
710  7380
709  7075
708  7100
707  7535
706  7240
705  7165
704  7375
703  7360
702  6970
701  7225
700  6870
699  7330
698  7140
697  7160
696  7385
695  7405
694  7235
693  7280
692  7150
691  7075
690  7580
689  7275
688  7575
687  7265
686  7395
685  7435
684  7475
683  7530
682  7290
681  6930
680  7360
679  7240
678  7510
677  7455
676  7325
675  7320
674  7660
673  7345
672  7045
671  7315
670  7125
669  7210
668  7520
667  7190
666  7200
665  7405
664  7625
663  7325
662  7500
661  7680
660  7610
659  7700
658  7435
657  7255
656  7075
655  7420
654  7215
653  7465
652  7455
651  7450
650  7595
649  7395
648  7920
647  7320
646  7600
645  7390
644  7375
643  7140
642  7555
641  7715
640  7475
639  7695
638  7060
637  7545
636  7490
635  7485
634  7605
633  7820
632  7570
631  7905
630  7660
629  7785
628  7395
627  7730
626  7560
625  7460
624  7390
623  7600
622  7735
621  7495
620  7680
619  7730
618  7665
617  7360
616  7525
615  7620
614  7675
613  7420
612  7705
611  7645
610  8060
609  7610
608  7790
607  7695
606  7805
605  7860
604  7875
603  7405
602  7570
601  7765
600  7840
599  7740
598  7530
597  7730
596  7475
595  7920
594  7520
593  7545
592  7675
591  7510
590  7695
589  7935
588  7855
587  7885
586  7940
585  7825
584  7645
583  7760
582  8025
581  7565
580  7925
579  7860
578  7610
577  7610
576  7325
575  7130
574  7375
573  7820
572  7230
571  7330
570  7700
569  7555
568  8045
567  7590
566  7820
565  8155
564  8220
563  8135
562  8700
561  8575
560  8495
559  8460
558  8170
557  7950
556  7620
555  7095
554  7215
553  7265
552  6585
551  6740
550  6340
549  6495
548  5600
547  5535
546  5405
545  5340
544  5285
543  5405
542  5410
541  6435
540  8615
539  14690
538  25095
537  26100
536  14895
535  7390
534  5420
533  5285
532  5435
531  5130
530  5015
529  5200
528  5720
527  6445
526  5470
525  5175
524  4715
523  4445
522  4165
521  4500
520  4510
519  4390
518  4145
517  4545
516  4250
515  4340
514  4240
513  3960
512  4195
511  3755
510  4160
509  4195
508  4230
507  4110
506  4180
505  4205
504  4190
503  4215
502  4105
501  4270
500  4050
499  4125
498  4070
497  4180
496  4225
495  4325
494  4260
