# Created by:        SpecsLab Prodigy, Version 4.60.2-r85849 
#
# XY-Serializer Export Settings:
#   Comment Prefix:           #
#   Output meta data:         yes
#   Energy Axis:              Binding Energy
#   Count Rate:               Counts per Second
#   Separate Scan Data:       no
#   Separate Channel Data:    no
#   External Channel Data:    yes
#   Transmission Function:    no
#   ErrorBar:                 no
#   Operation Results:        yes
#   Time Zone Format:         UTC
#
# Group:             Spectrum Group
#
# Region:            Ba3d
# Acquisition Date:  04/07/22 14:00:24 UTC
# Analysis Method:   XPS
# Analyzer:          Phoibos 100 R6
# Analyzer Lens:     LargeArea:1.5kV
# Analyzer Slit:     1:0.2x20\B:open
# Scan Mode:         FixedAnalyzerTransmission
# Curves/Scan:       1
# Values/Curve:      121
# Dwell Time:        0.8
# Excitation Energy: 1486.61
# Binding Energy:    789
# Pass Energy:       30
# Bias Voltage:      90
# Detector Voltage:  2600
# Eff. Workfunction: 4.309
# Source:            X-Ray Dummy
# Comment:           
#
# Cycle: 0
# Number of Scans: 4
#
# Cycle: 0, Curve: 0
# Acquisition Date: 04/07/22 14:00:24 UTC
#
# ColumnLabels: energy counts/s
#
789  1961.25
788.9  1941.5625
788.8  1950
788.7  1944.0625
788.6  1875
788.5  1958.125
788.4  1890.625
788.3  1944.6875
788.2  1921.875
788.1  1881.5625
788  1948.4375
787.9  1906.25
787.8  1960.3125
787.7  1928.4375
787.6  1918.125
787.5  1936.875
787.4  1953.125
787.3  1941.875
787.2  1956.875
787.1  1926.875
787  1928.4375
786.9  1940.625
786.8  1922.8125
786.7  1932.5
786.6  1950.3125
786.5  1954.375
786.4  1930.625
786.3  1918.125
786.2  1935.3125
786.1  1943.125
786  1996.25
785.9  1924.375
785.8  1930.9375
785.7  1946.875
785.6  1948.75
785.5  1920.9375
785.4  1930
785.3  1940.625
785.2  1935
785.1  1942.1875
785  1913.75
784.9  1909.375
784.8  1904.375
784.7  1914.375
784.6  1900.625
784.5  1952.8125
784.4  1965
784.3  1939.6875
784.2  1940.9375
784.1  1960.3125
784  1935
783.9  1887.8125
783.8  1928.4375
783.7  1942.5
783.6  1937.1875
783.5  1967.1875
783.4  1905.625
783.3  1904.0625
783.2  1929.0625
783.1  1933.125
783  1959.0625
782.9  1930.3125
782.8  1944.375
782.7  1977.8125
782.6  1943.125
782.5  1912.5
782.4  1925.625
782.3  1919.0625
782.2  1931.875
782.1  1923.125
782  1934.0625
781.9  1921.25
781.8  1961.5625
781.7  1885.625
781.6  1915.3125
781.5  1917.5
781.4  1877.5
781.3  1930
781.2  1959.375
781.1  1938.4375
781  1951.25
780.9  1978.125
780.8  1916.25
780.7  1936.5625
780.6  1897.5
780.5  1923.125
780.4  1912.1875
780.3  1827.8125
780.2  1925
780.1  1945.3125
780  1970
779.9  1932.5
779.8  1925.625
779.7  1848.4375
779.6  1900.3125
779.5  1958.4375
779.4  1936.875
779.3  1880.3125
779.2  1920
779.1  1924.0625
779  1891.875
778.9  1927.1875
778.8  1887.5
778.7  1938.4375
778.6  1887.8125
778.5  1906.875
778.4  1925
778.3  1970
778.2  1920.3125
778.1  1915
778  1877.1875
777.9  1923.125
777.8  1931.875
777.7  1904.6875
777.6  1894.0625
777.5  1904.0625
777.4  1894.0625
777.3  1921.875
777.2  1931.5625
777.1  1907.5
777  1898.125

# Region:            overview
# Acquisition Date:  04/07/22 13:17:25 UTC
# Analysis Method:   XPS
# Analyzer:          Phoibos 100 R6
# Analyzer Lens:     MediumArea:1.5kV
# Analyzer Slit:     1:0.2x20\B:open
# Scan Mode:         FixedAnalyzerTransmission
# Curves/Scan:       1
# Values/Curve:      1205
# Dwell Time:        0.2
# Excitation Energy: 1486.61
# Binding Energy:    1200
# Pass Energy:       50
# Bias Voltage:      90
# Detector Voltage:  2600
# Eff. Workfunction: 4.309
# Source:            X-Ray Dummy
# Comment:           
#
# Cycle: 0
# Number of Scans: 1
#
# Cycle: 0, Curve: 0
# Acquisition Date: 04/07/22 13:17:25 UTC
#
# ColumnLabels: energy counts/s
#
1200  2920
1199  2985
1198  3075
1197  3005
1196  3210
1195  3100
1194  2870
1193  3030
1192  3110
1191  2780
1190  3145
1189  2930
1188  3075
1187  3005
1186  2915
1185  2925
1184  2845
1183  2770
1182  2720
1181  2840
1180  2685
1179  2725
1178  2985
1177  2770
1176  2815
1175  2955
1174  2740
1173  2615
1172  2895
1171  2880
1170  2895
1169  2640
1168  2675
1167  2780
1166  2565
1165  2715
1164  2660
1163  2585
1162  2465
1161  2785
1160  2680
1159  2450
1158  2705
1157  2670
1156  2700
1155  2505
1154  2740
1153  2510
1152  2460
1151  2615
1150  2510
1149  2825
1148  2485
1147  2645
1146  2575
1145  2610
1144  2540
1143  2515
1142  2505
1141  2725
1140  2630
1139  2595
1138  2660
1137  2525
1136  2495
1135  2520
1134  2620
1133  2830
1132  2610
1131  2620
1130  2460
1129  2550
1128  2495
1127  2725
1126  2525
1125  2445
1124  2660
1123  2565
1122  2835
1121  2690
1120  2450
1119  2680
1118  2345
1117  2475
1116  2615
1115  2675
1114  2750
1113  2490
1112  2295
1111  2765
1110  2540
1109  2690
1108  2560
1107  2640
1106  2495
1105  2335
1104  2400
1103  2585
1102  2475
1101  2475
1100  2555
1099  2510
1098  2425
1097  2380
1096  2435
1095  2270
1094  2470
1093  2260
1092  2490
1091  2480
1090  2540
1089  2325
1088  2310
1087  2400
1086  2625
1085  2465
1084  2455
1083  2485
1082  2460
1081  2710
1080  2570
1079  2715
1078  2560
1077  2625
1076  2490
1075  2545
1074  2600
1073  2600
1072  2345
1071  2450
1070  2455
1069  2380
1068  2585
1067  2405
1066  2340
1065  2515
1064  2570
1063  2290
1062  2430
1061  2215
1060  2445
1059  2420
1058  2320
1057  2675
1056  2515
1055  2375
1054  2295
1053  2480
1052  2295
1051  2335
1050  2500
1049  2335
1048  2380
1047  2515
1046  2555
1045  2420
1044  2490
1043  2295
1042  2575
1041  2290
1040  2380
1039  2400
1038  2475
1037  2445
1036  2315
1035  2390
1034  2235
1033  2660
1032  2320
1031  2380
1030  2335
1029  2305
1028  2630
1027  2280
1026  2490
1025  2425
1024  2485
1023  2510
1022  2435
1021  2280
1020  2555
1019  2425
1018  2460
1017  2450
1016  2340
1015  2240
1014  2355
1013  2355
1012  2345
1011  2195
1010  2540
1009  2500
1008  2495
1007  2360
1006  2450
1005  2480
1004  2550
1003  2445
1002  2300
1001  2460
1000  2450
999  2145
998  2460
997  2115
996  2435
995  1990
994  2055
993  1840
992  2165
991  2000
990  2145
989  2090
988  2035
987  1990
986  2405
985  2540
984  2630
983  2665
982  2535
981  2635
980  2360
979  2185
978  2255
977  2215
976  1835
975  1840
974  2025
973  1815
972  1745
971  1650
970  1685
969  1600
968  1405
967  1525
966  1370
965  1535
964  1450
963  1425
962  1530
961  1315
960  1460
959  1410
958  1395
957  1510
956  1455
955  1420
954  1510
953  1430
952  1460
951  1255
950  1490
949  1545
948  1370
947  1385
946  1420
945  1515
944  1285
943  1455
942  1485
941  1345
940  1565
939  1490
938  1470
937  1430
936  1450
935  1545
934  1580
933  1515
932  1380
931  1545
930  1400
929  1380
928  1555
927  1405
926  1235
925  1460
924  1620
923  1410
922  1465
921  1435
920  1515
919  1560
918  1340
917  1500
916  1430
915  1505
914  1605
913  1405
912  1430
911  1575
910  1440
909  1430
908  1330
907  1380
906  1540
905  1490
904  1545
903  1455
902  1460
901  1400
900  1410
899  1475
898  1425
897  1515
896  1515
895  1500
894  1480
893  1460
892  1235
891  1515
890  1575
889  1535
888  1580
887  1325
886  1340
885  1585
884  1415
883  1465
882  1495
881  1425
880  1540
879  1325
878  1500
877  1485
876  1410
875  1440
874  1420
873  1405
872  1505
871  1535
870  1285
869  1385
868  1640
867  1435
866  1565
865  1475
864  1565
863  1525
862  1515
861  1580
860  1345
859  1490
858  1510
857  1360
856  1325
855  1575
854  1415
853  1475
852  1390
851  1715
850  1340
849  1425
848  1580
847  1565
846  1555
845  1450
844  1540
843  1440
842  1395
841  1540
840  1320
839  1430
838  1370
837  1385
836  1555
835  1580
834  1565
833  1405
832  1330
831  1495
830  1645
829  1460
828  1545
827  1505
826  1320
825  1440
824  1560
823  1385
822  1425
821  1340
820  1500
819  1420
818  1500
817  1555
816  1535
815  1545
814  1415
813  1325
812  1560
811  1345
810  1635
809  1485
808  1510
807  1525
806  1460
805  1555
804  1540
803  1610
802  1520
801  1540
800  1450
799  1560
798  1745
797  1510
796  1605
795  1480
794  1510
793  1670
792  1610
791  1485
790  1395
789  1475
788  1690
787  1460
786  1490
785  1480
784  1620
783  1500
782  1570
781  1390
780  1505
779  1565
778  1500
777  1505
776  1640
775  1460
774  1610
773  1630
772  1595
771  1485
770  1650
769  1625
768  1525
767  1585
766  1610
765  1650
764  1640
763  1390
762  1540
761  1570
760  1675
759  1785
758  1545
757  1625
756  1490
755  1655
754  1735
753  1685
752  1645
751  1480
750  1580
749  1660
748  1665
747  1560
746  1615
745  1730
744  1705
743  1625
742  1565
741  1670
740  1645
739  1475
738  1520
737  1530
736  1605
735  1690
734  1640
733  1645
732  1595
731  1560
730  1575
729  1460
728  1535
727  1545
726  1750
725  1515
724  1635
723  1535
722  1705
721  1580
720  1560
719  1775
718  1665
717  1575
716  1740
715  1695
714  1580
713  1570
712  1590
711  1650
710  1595
709  1450
708  1535
707  1670
706  1620
705  1720
704  1485
703  1760
702  1675
701  1580
700  1640
699  1715
698  1610
697  1560
696  1555
695  1740
694  1785
693  1880
692  1690
691  1850
690  1640
689  1680
688  1640
687  1905
686  1715
685  1620
684  1785
683  1870
682  1540
681  1685
680  1595
679  1770
678  1700
677  1805
676  1550
675  1740
674  1780
673  1640
672  1650
671  1760
670  1645
669  1815
668  1920
667  1700
666  1745
665  1720
664  1740
663  1675
662  1725
661  1795
660  1870
659  1775
658  1835
657  1860
656  1600
655  1750
654  1630
653  1810
652  1535
651  1870
650  1745
649  1710
648  1775
647  1905
646  1630
645  1590
644  1820
643  1750
642  1720
641  1885
640  1880
639  1890
638  1775
637  1790
636  1825
635  1820
634  1955
633  1970
632  1700
631  1915
630  1770
629  1935
628  1825
627  1975
626  1795
625  1670
624  1985
623  1880
622  1875
621  1750
620  1830
619  1710
618  1865
617  1755
616  1880
615  1950
614  2090
613  2090
612  1955
611  1925
610  1915
609  1955
608  1945
607  2110
606  1900
605  2065
604  1905
603  1815
602  1935
601  1855
600  1970
599  1905
598  1945
597  1940
596  2000
595  1940
594  1990
593  1920
592  1915
591  1985
590  2020
589  1895
588  2015
587  1875
586  1940
585  1970
584  1970
583  1805
582  1865
581  1845
580  1815
579  1880
578  2025
577  1895
576  2025
575  2060
574  1880
573  1800
572  1875
571  1840
570  1825
569  1845
568  1910
567  2075
566  1885
565  2150
564  1940
563  2070
562  2185
561  2360
560  2075
559  2290
558  2300
557  2315
556  2240
555  2070
554  1840
553  1875
552  1750
551  1755
550  1630
549  1620
548  1555
547  1360
546  1410
545  1020
544  1290
543  1200
542  1075
541  1130
540  1225
539  1340
538  1595
537  2740
536  6490
535  8135
534  4710
533  2175
532  1170
531  1070
530  960
529  1060
528  1145
527  1095
526  1290
525  1375
524  1485
523  1125
522  1060
521  965
520  850
519  820
518  930
517  825
516  900
515  865
514  880
513  915
512  750
511  805
510  900
509  720
508  850
507  865
506  900
505  855
504  785
503  820
502  995
501  820
500  1015
499  965
498  815
497  740
496  780
495  885
494  875
493  790
492  820
491  790
490  740
489  710
488  735
487  810
486  775
485  855
484  830
483  760
482  790
481  860
480  865
479  800
478  815
477  815
476  770
475  815
474  885
473  770
472  1000
471  705
470  730
469  975
468  795
467  765
466  860
465  975
464  980
463  870
462  840
461  775
460  810
459  840
458  880
457  855
456  860
455  840
454  905
453  765
452  705
451  860
450  935
449  785
448  795
447  755
446  815
445  735
444  775
443  825
442  725
441  720
440  765
439  945
438  855
437  775
436  750
435  795
434  885
433  630
432  790
431  875
430  745
429  785
428  790
427  780
426  710
425  820
424  880
423  790
422  805
421  850
420  755
419  840
418  770
417  750
416  840
415  705
414  745
413  850
412  715
411  755
410  705
409  735
408  750
407  775
406  805
405  810
404  945
403  920
402  800
401  835
400  760
399  705
398  865
397  875
396  810
395  820
394  755
393  785
392  900
391  825
390  735
389  800
388  790
387  825
386  870
385  860
384  785
383  700
382  790
381  825
380  755
379  735
378  830
377  820
376  780
375  910
374  825
373  730
372  750
371  800
370  985
369  865
368  910
367  830
366  860
365  770
364  865
363  770
362  815
361  800
360  790
359  800
358  840
357  875
356  830
355  885
354  930
353  785
352  865
351  980
350  835
349  815
348  860
347  935
346  840
345  935
344  965
343  930
342  780
341  820
340  960
339  805
338  890
337  820
336  945
335  785
334  915
333  895
332  880
331  870
330  780
329  735
328  975
327  875
326  890
325  830
324  825
323  990
322  845
321  900
320  945
319  815
318  975
317  810
316  945
315  1000
314  835
313  975
312  905
311  925
310  945
309  855
308  820
307  895
306  855
305  860
304  885
303  875
302  915
301  890
300  850
299  960
298  920
297  745
296  865
295  890
294  935
293  955
292  885
291  970
290  1325
289  1645
288  2015
287  1700
286  1285
285  815
284  800
283  705
282  955
281  980
280  970
279  895
278  955
277  875
276  855
275  920
274  760
273  860
272  810
271  750
270  740
269  815
268  810
267  820
266  925
265  795
264  705
263  705
262  845
261  1035
260  725
259  855
258  820
257  935
256  830
255  750
254  785
253  895
252  730
251  765
250  870
249  790
248  855
247  815
246  950
245  710
244  835
243  830
242  825
241  860
240  725
239  840
238  760
237  945
236  740
235  865
234  715
233  880
232  880
231  890
230  875
229  935
228  815
227  905
226  805
225  750
224  935
223  905
222  865
221  835
220  765
219  880
218  855
217  835
216  725
215  850
214  955
213  910
212  830
211  790
210  820
209  840
208  900
207  850
206  885
205  890
204  900
203  865
202  875
201  860
200  950
199  840
198  985
197  945
196  830
195  1015
194  935
193  875
192  845
191  790
190  890
189  875
188  810
187  845
186  810
185  860
184  785
183  940
182  1015
181  900
180  910
179  940
178  1015
177  910
176  855
175  850
174  865
173  660
172  990
171  820
170  820
169  760
168  760
167  830
166  760
165  715
164  750
163  640
162  855
161  740
160  870
159  990
158  1690
157  2020
156  1555
155  1170
154  855
153  840
152  655
151  700
150  685
149  810
148  750
147  710
146  640
145  755
144  745
143  685
142  675
141  720
140  685
139  605
138  690
137  665
136  630
135  650
134  710
133  665
132  670
131  605
130  715
129  740
128  740
127  765
126  740
125  725
124  730
123  645
122  700
121  700
120  745
119  630
118  615
117  555
116  465
115  550
114  525
113  485
112  555
111  565
110  535
109  580
108  680
107  1345
106  1730
105  1490
104  740
103  510
102  460
101  475
100  485
99  530
98  545
97  470
96  540
95  575
94  590
93  455
92  550
91  380
90  430
89  440
88  445
87  480
86  465
85  420
84  430
83  370
82  580
81  395
80  435
79  425
78  440
77  510
76  405
75  545
74  475
73  480
72  535
71  505
70  455
69  390
68  540
67  445
66  520
65  575
64  440
63  450
62  520
61  485
60  525
59  420
58  500
57  495
56  390
55  445
54  440
53  480
52  475
51  470
50  535
49  445
48  430
47  440
46  480
45  535
44  475
43  470
42  400
41  475
40  440
39  460
38  470
37  475
36  490
35  460
34  475
33  430
32  425
31  575
30  595
29  545
28  655
27  715
26  615
25  395
24  510
23  455
22  365
21  355
20  445
19  440
18  470
17  445
16  415
15  400
14  455
13  495
12  400
11  440
10  395
9  465
8  550
7  430
6  375
5  380
4  375
3  495
2  440
1  390
-2.2737368e-013  335
-1  385
-2  410
-3  315
-4  420

# Region:            C1s
# Acquisition Date:  04/07/22 15:18:51 UTC
# Analysis Method:   XPS
# Analyzer:          Phoibos 100 R6
# Analyzer Lens:     LargeArea:1.5kV
# Analyzer Slit:     1:0.2x20\B:open
# Scan Mode:         FixedAnalyzerTransmission
# Curves/Scan:       1
# Values/Curve:      151
# Dwell Time:        0.8
# Excitation Energy: 1486.61
# Binding Energy:    295
# Pass Energy:       30
# Bias Voltage:      90
# Detector Voltage:  2600
# Eff. Workfunction: 4.309
# Source:            X-Ray Dummy
# Comment:           
#
# Cycle: 0
# Number of Scans: 20
#
# Cycle: 0, Curve: 0
# Acquisition Date: 04/07/22 15:18:51 UTC
#
# ColumnLabels: energy counts/s
#
295  679.625
294.9  670.8125
294.8  678
294.7  676.25
294.6  663.375
294.5  668.4375
294.4  665
294.3  667.9375
294.2  669.0625
294.1  678.5625
294  668.625
293.9  684.4375
293.8  679.8125
293.7  683.375
293.6  684.3125
293.5  674.9375
293.4  689.8125
293.3  675.375
293.2  678.9375
293.1  681.75
293  675.8125
292.9  688.3125
292.8  689.4375
292.7  691.6875
292.6  694.3125
292.5  706
292.4  707.5625
292.3  710.75
292.2  719.125
292.1  716.25
292  715.4375
291.9  720.125
291.8  733.25
291.7  751.875
291.6  740.5
291.5  745.875
291.4  757.4375
291.3  760.1875
291.2  774.125
291.1  764.3125
291  777.75
290.9  791.6875
290.8  795.5625
290.7  817.125
290.6  816.0625
290.5  825.5625
290.4  842.375
290.3  852
290.2  872.5
290.1  907.3125
290  897.4375
289.9  912.1875
289.8  946.375
289.7  964.625
289.6  985.25
289.5  1004.4375
289.4  1024.75
289.3  1111.0625
289.2  1070.875
289.1  1113.5
289  1150.875
288.9  1175.125
288.8  1200
288.7  1218.875
288.6  1237.0625
288.5  1278.4375
288.4  1320.0625
288.3  1324.5
288.2  1371
288.1  1395.875
288  1413.3125
287.9  1442.125
287.8  1440.8125
287.7  1449.4375
287.6  1457.3125
287.5  1451.6875
287.4  1448.0625
287.3  1444.6875
287.2  1386.25
287.1  1358.9375
287  1321.125
286.9  1276.75
286.8  1224.5625
286.7  1174.4375
286.6  1111.5
286.5  1061.25
286.4  1010.625
286.3  959
286.2  910.1875
286.1  880.8125
286  843.0625
285.9  820.0625
285.8  791.3125
285.7  763.6875
285.6  753.25
285.5  729.75
285.4  714.5
285.3  716.875
285.2  705.3125
285.1  694
285  663.875
284.9  679.4375
284.8  663.75
284.7  653.9375
284.6  658.0625
284.5  662.5
284.4  652.375
284.3  655.75
284.2  659.75
284.1  636.25
284  641.625
283.9  684.625
283.8  646.25
283.7  649.25
283.6  632.875
283.5  640.6875
283.4  639.25
283.3  646.125
283.2  630.1875
283.1  646.75
283  645.25
282.9  640.0625
282.8  652.5625
282.7  644.625
282.6  640.5
282.5  650.625
282.4  652.4375
282.3  650.375
282.2  635
282.1  641.0625
282  636.625
281.9  645.4375
281.8  643.1875
281.7  655.25
281.6  639.8125
281.5  645.3125
281.4  646.8125
281.3  656.5625
281.2  646.125
281.1  647.8125
281  637.5625
280.9  655.1875
280.8  653.0625
280.7  647.1875
280.6  649.5
280.5  639.4375
280.4  654.75
280.3  645.0625
280.2  641.375
280.1  659.1875
280  658.0625

# Region:            O1s
# Acquisition Date:  04/07/22 14:44:38 UTC
# Analysis Method:   XPS
# Analyzer:          Phoibos 100 R6
# Analyzer Lens:     LargeArea:1.5kV
# Analyzer Slit:     1:0.2x20\B:open
# Scan Mode:         FixedAnalyzerTransmission
# Curves/Scan:       1
# Values/Curve:      141
# Dwell Time:        0.8
# Excitation Energy: 1486.61
# Binding Energy:    541
# Pass Energy:       30
# Bias Voltage:      90
# Detector Voltage:  2600
# Eff. Workfunction: 4.309
# Source:            X-Ray Dummy
# Comment:           
#
# Cycle: 0
# Number of Scans: 10
#
# Cycle: 0, Curve: 0
# Acquisition Date: 04/07/22 14:44:38 UTC
#
# ColumnLabels: energy counts/s
#
541  1042.75
540.9  1049.625
540.8  1037.75
540.7  1056.75
540.6  1051.875
540.5  1063.125
540.4  1057.5
540.3  1070.875
540.2  1065.75
540.1  1067.25
540  1084.75
539.9  1087.75
539.8  1099.25
539.7  1098.5
539.6  1113.625
539.5  1116
539.4  1105.125
539.3  1161.875
539.2  1142.125
539.1  1146.75
539  1165.875
538.9  1164.75
538.8  1205
538.7  1198.25
538.6  1225.125
538.5  1259.5
538.4  1232.75
538.3  1266.875
538.2  1304.25
538.1  1321.875
538  1359.5
537.9  1399.875
537.8  1426.625
537.7  1506.125
537.6  1583.625
537.5  1639.125
537.4  1758.5
537.3  1860
537.2  2016.25
537.1  2139.25
537  2316.625
536.9  2535.375
536.8  2786.875
536.7  3043.625
536.6  3378.375
536.5  3713.75
536.4  4128.5
536.3  4509.5
536.2  4939.875
536.1  5394.25
536  5806
535.9  6304.125
535.8  6735
535.7  7072.25
535.6  7359.5
535.5  7760.375
535.4  7969.25
535.3  7989.375
535.2  7986.875
535.1  8018.375
535  7828.75
534.9  7611.625
534.8  7323.125
534.7  6932.375
534.6  6503.125
534.5  6015.625
