# Created by:        SpecsLab Prodigy, Version 4.60.2-r85849 
#
# XY-Serializer Export Settings:
#   Comment Prefix:           #
#   Output meta data:         yes
#   Energy Axis:              Binding Energy
#   Count Rate:               Counts per Second
#   Separate Scan Data:       no
#   Separate Channel Data:    no
#   External Channel Data:    yes
#   Transmission Function:    no
#   ErrorBar:                 no
#   Operation Results:        yes
#   Time Zone Format:         UTC
#
# Group:             Spectrum Group
#
# Region:            Ba3d
# Acquisition Date:  04/21/22 23:00:02 UTC
# Analysis Method:   XPS
# Analyzer:          Phoibos 100 R6
# Analyzer Lens:     LargeArea:1.5kV
# Analyzer Slit:     1:0.2x20\B:open
# Scan Mode:         FixedAnalyzerTransmission
# Curves/Scan:       1
# Values/Curve:      121
# Dwell Time:        0.8
# Excitation Energy: 1486.61
# Binding Energy:    789
# Pass Energy:       30
# Bias Voltage:      90
# Detector Voltage:  2600
# Eff. Workfunction: 4.309
# Source:            X-Ray Dummy
# Comment:           
#
# Cycle: 0
# Number of Scans: 20
#
# Cycle: 0, Curve: 0
# Acquisition Date: 04/21/22 23:00:02 UTC
#
# ColumnLabels: energy counts/s
#
789  1963.6875
788.9  2002.5
788.8  1969.9375
788.7  1987
788.6  1978.9375
788.5  1966.625
788.4  1979
788.3  1987.1875
788.2  1998.9375
788.1  1960.25
788  1990.25
787.9  1986.25
787.8  1972.3125
787.7  1943.0625
787.6  1964.1875
787.5  1948
787.4  1952.1875
787.3  1959.375
787.2  1980.5
787.1  1959.3125
787  1962.8125
786.9  1970.6875
786.8  1992.1875
786.7  1971.9375
786.6  1957.625
786.5  2004.3125
786.4  1973.1875
786.3  1991.9375
786.2  1974.8125
786.1  1992.0625
786  2016.25
785.9  2025.5625
785.8  2061.375
785.7  2049.375
785.6  2043.75
785.5  2066.0625
785.4  2108
785.3  2124.25
785.2  2134.125
785.1  2189.5
785  2229.375
784.9  2263.0625
784.8  2323.875
784.7  2407.8125
784.6  2467.625
784.5  2560.875
784.4  2634.125
784.3  2765.0625
784.2  2875.625
784.1  2998.0625
784  3112.1875
783.9  3259.25
783.8  3380.3125
783.7  3486.75
783.6  3640.25
783.5  3763.875
783.4  3875
783.3  3915.375
783.2  3979.375
783.1  4026.375
783  4031.75
782.9  4019.1875
782.8  3975.3125
782.7  3891.875
782.6  3788.9375
782.5  3695.875
782.4  3577.6875
782.3  3415.4375
782.2  3327.25
782.1  3155.875
782  3057.0625
781.9  2920
781.8  2747.5
781.7  2661.375
781.6  2549.875
781.5  2451
781.4  2337.375
781.3  2304.8125
781.2  2230.25
781.1  2196.625
781  2117
780.9  2062.4375
780.8  2046.5
780.7  2014.5625
780.6  1975.1875
780.5  1969.25
780.4  1952.5625
780.3  1927.5
780.2  1939.9375
780.1  1901.1875
780  1895.3125
779.9  1861.5625
779.8  1857.0625
779.7  1861
779.6  1858.4375
779.5  1845.3125
779.4  1856.4375
779.3  1841.5
779.2  1806.5
779.1  1827.8125
779  1828.6875
778.9  1813.6875
778.8  1803.875
778.7  1804.125
778.6  1848.6875
778.5  1831
778.4  1812.8125
778.3  1806.5625
778.2  1805.625
778.1  1832.75
778  1840.75
777.9  1816.6875
777.8  1797.3125
777.7  1810.3125
777.6  1815.75
777.5  1791.1875
777.4  1786.5
777.3  1792.0625
777.2  1791.5625
777.1  1780.375
777  1781.9375

# Region:            C1s
# Acquisition Date:  04/22/22 06:50:54 UTC
# Analysis Method:   XPS
# Analyzer:          Phoibos 100 R6
# Analyzer Lens:     LargeArea:1.5kV
# Analyzer Slit:     1:0.2x20\B:open
# Scan Mode:         FixedAnalyzerTransmission
# Curves/Scan:       1
# Values/Curve:      151
# Dwell Time:        0.8
# Excitation Energy: 1486.61
# Binding Energy:    295
# Pass Energy:       30
# Bias Voltage:      90
# Detector Voltage:  2600
# Eff. Workfunction: 4.309
# Source:            X-Ray Dummy
# Comment:           
#
# Cycle: 0
# Number of Scans: 87
#
# Cycle: 0, Curve: 0
# Acquisition Date: 04/22/22 06:50:54 UTC
#
# ColumnLabels: energy counts/s
#
295  608.17529
294.9  609.36782
294.8  613.90805
294.7  610.50287
294.6  616.14943
294.5  611.36494
294.4  610.14368
294.3  608.20402
294.2  616.42241
294.1  617.74425
294  616.73851
293.9  617.61494
293.8  616.82471
293.7  619.6408
293.6  618.54885
293.5  619.25287
293.4  617.38506
293.3  627.57184
293.2  624.51149
293.1  624.46839
293  628.80747
292.9  627.95977
292.8  636.07759
292.7  638.3046
292.6  633.69253
292.5  639.25287
292.4  658.07471
292.3  643.11782
292.2  655.60345
292.1  650.90517
292  654.87069
291.9  667.70115
291.8  668.07471
291.7  671.92529
291.6  676.63793
291.5  680.70402
291.4  693.7069
291.3  689.91379
291.2  697.28448
291.1  709.62644
291  733.52011
290.9  724.56897
290.8  730.81897
290.7  741.66667
290.6  744.52586
290.5  760.76149
290.4  763.83621
290.3  774.87069
290.2  789.43966
290.1  801.92529
290  816.70977
289.9  828.37644
289.8  843.10345
289.7  865
289.6  876.75287
289.5  896.2069
289.4  919.54023
289.3  935.90517
289.2  952.77299
289.1  980.22989
289  1010.5891
288.9  1032.5431
288.8  1056.8534
288.7  1079.727
288.6  1110.977
288.5  1130.6322
288.4  1162.7874
288.3  1188.3764
288.2  1224.6983
288.1  1236.6523
288  1264.0086
287.9  1286.408
287.8  1303.7931
287.7  1325.3879
287.6  1321.0776
287.5  1327.658
287.4  1311.681
287.3  1309.3534
287.2  1300.1293
287.1  1246.8103
287  1213.5057
286.9  1181.0776
286.8  1125.3592
286.7  1083.5201
286.6  1023.3477
286.5  990.8477
286.4  930.67529
286.3  878.85057
286.2  835.60345
286.1  803.50575
286  766.58046
285.9  740.71839
285.8  709.08046
285.7  692.62931
285.6  670.64655
285.5  656.19253
285.4  659.98563
285.3  629.5546
285.2  618.53448
285.1  613.36207
285  606.19253
284.9  610.81897
284.8  605.91954
284.7  599.45402
284.6  592.95977
284.5  588.85057
284.4  585.08621
284.3  591.63793
284.2  585.74713
284.1  588.56322
284  580.25862
283.9  587.75862
283.8  582.9023
283.7  580.97701
283.6  573.36207
283.5  578.85057
283.4  581.03448
283.3  584.46839
283.2  578.99425
283.1  599.43966
283  582.32759
282.9  576.27874
282.8  580.48851
282.7  580.93391
282.6  578.08908
282.5  576.17816
282.4  586.62356
282.3  582.18391
282.2  578.80747
282.1  582.01149
282  584.1954
281.9  587.67241
281.8  583.87931
281.7  587.21264
281.6  586.03448
281.5  584.56897
281.4  590.10057
281.3  588.77874
281.2  586.89655
281.1  587.25575
281  578.3908
280.9  587.8592
280.8  582.97414
280.7  586.59483
280.6  584.5546
280.5  593.07471
280.4  581.27874
280.3  585.18678
280.2  582.27011
280.1  588.03161
280  588.73563

# Region:            O1s
# Acquisition Date:  04/22/22 06:47:13 UTC
# Analysis Method:   XPS
# Analyzer:          Phoibos 100 R6
# Analyzer Lens:     LargeArea:1.5kV
# Analyzer Slit:     1:0.2x20\B:open
# Scan Mode:         FixedAnalyzerTransmission
# Curves/Scan:       1
# Values/Curve:      141
# Dwell Time:        0.8
# Excitation Energy: 1486.61
# Binding Energy:    541
# Pass Energy:       30
# Bias Voltage:      90
# Detector Voltage:  2600
# Eff. Workfunction: 4.309
# Source:            X-Ray Dummy
# Comment:           
#
# Cycle: 0
# Number of Scans: 86
#
# Cycle: 0, Curve: 0
# Acquisition Date: 04/22/22 06:47:13 UTC
#
# ColumnLabels: energy counts/s
#
541  921.55523
540.9  923.1686
540.8  927.90698
540.7  925.21802
540.6  927.70349
540.5  927.36919
540.4  937.89244
540.3  941.97674
540.2  945.13081
540.1  953.50291
540  951.39535
539.9  957.5436
539.8  963.18314
539.7  966.80233
539.6  976.25
539.5  992.09302
539.4  996.5843
539.3  1006.1773
539.2  1004.7093
539.1  1017.4709
539  1029.7238
538.9  1036.0174
538.8  1048.4302
538.7  1061.439
538.6  1078.314
538.5  1088.9826
538.4  1109.593
538.3  1123.5174
538.2  1152.1366
538.1  1159.8256
538  1180.0727
537.9  1221.0465
537.8  1257.9942
537.7  1308.3285
537.6  1358.939
537.5  1421.1628
537.4  1517.8488
537.3  1603.4157
537.2  1720.814
537.1  1859.4477
537  2026.6134
536.9  2207.9942
536.8  2417.2093
536.7  2657.3983
536.6  2940.2616
536.5  3219.9709
536.4  3555.5669
536.3  3889.0698
536.2  4256.2791
536.1  4626.2355
536  5006.3517
535.9  5400.189
535.8  5752.5291
535.7  6084.4622
535.6  6360.6831
535.5  6590.6686
535.4  6734.8692
535.3  6867.1076
535.2  6861.8314
535.1  6801.9622
535  6661.2064
534.9  6436.875
534.8  6183.3576
534.7  5842.3256
534.6  5472.5
534.5  5077.1802
534.4  4663.6628
534.3  4251.6424
534.2  3877.0349
534.1  3484.4477
534  3165.7703
533.9  2842.6308
533.8  2579.1279
533.7  2308.1105
533.6  2099.7384
533.5  1929.0843
533.4  1769.1424
533.3  1638.532
533.2  1526.6424
533.1  1432.0349
533  1353.8372
532.9  1283.6337
532.8  1226.061
532.7  1178.9971
532.6  1132.0349
532.5  1089.186
532.4  1056.8314
532.3  1034.1715
532.2  1001.5407
532.1  991.13372
532  962.73256
531.9  949.98547
531.8  934.40407
531.7  911.32267
531.6  901.56977
531.5  885.01453
531.4  876.13372
531.3  863.61919
531.2  859.43314
531.1  855.65407
531  844.46221
530.9  837.90698
530.8  845.07267
530.7  830.87209
530.6  825.36337
530.5  815.46512
530.4  821.10465
530.3  817.68895
530.2  817.28198
530.1  811.5407
530  807.90698
529.9  820.36337
529.8  807.89244
529.7  817.07849
529.6  812.1657
529.5  824.12791
529.4  810.68314
529.3  803.4593
529.2  808.34302
529.1  803.90988
529  794.89826
528.9  797.04942
528.8  787.41279
528.7  788.88081
528.6  791.78779
528.5  792.29651
528.4  785.55233
528.3  780.5814
528.2  784.79651
528.1  779.68023
528  781.64244
527.9  787.1657
527.8  783.25581
527.7  790.81395
527.6  795.53779
527.5  796.32267
527.4  807.5436
527.3  819.68023
527.2  829.25872
527.1  843.96802
527  861.97674

# Region:            Cl2p
# Acquisition Date:  04/22/22 03:24:02 UTC
# Analysis Method:   XPS
# Analyzer:          Phoibos 100 R6
# Analyzer Lens:     LargeArea:1.5kV
# Analyzer Slit:     1:0.2x20\B:open
# Scan Mode:         FixedAnalyzerTransmission
# Curves/Scan:       1
# Values/Curve:      111
# Dwell Time:        0.8
# Excitation Energy: 1486.61
# Binding Energy:    207
# Pass Energy:       30
# Bias Voltage:      90
# Detector Voltage:  2600
# Eff. Workfunction: 4.309
# Source:            X-Ray Dummy
# Comment:           
#
# Cycle: 0
# Number of Scans: 50
#
# Cycle: 0, Curve: 0
# Acquisition Date: 04/22/22 03:24:02 UTC
#
# ColumnLabels: energy counts/s
#
207  576
206.9  569.55
206.8  573.475
206.7  575.575
206.6  572.9
206.5  580.425
206.4  574.35
206.3  572.875
206.2  567.4
206.1  573.775
206  573.4
205.9  577.65
205.8  580.35
205.7  579.825
205.6  572.925
205.5  579.625
205.4  568.65
205.3  569.9
205.2  573.775
205.1  569.625
205  573.075
204.9  577.2
204.8  572.875
204.7  571.525
204.6  579.725
204.5  578.1
204.4  582.175
204.3  582.35
204.2  588.25
204.1  583.525
204  590.225
203.9  593.95
203.8  600.175
203.7  617.95
203.6  599.225
203.5  603.9
203.4  612.5
203.3  614.325
203.2  619.5
203.1  633.375
203  625.8
202.9  641.475
202.8  641.375
202.7  651.075
202.6  658.9
202.5  666.75
202.4  670.275
202.3  674.725
202.2  680.1
202.1  684.3
202  694.15
201.9  707.575
201.8  701.325
201.7  702.375
201.6  707.15
201.5  709.1
201.4  718.025
201.3  726.15
201.2  729.95
201.1  736.45
201  735.1
200.9  735.725
200.8  732.825
200.7  736.675
200.6  731.475
200.5  733.3
200.4  725.55
200.3  719.725
200.2  701.4
200.1  697.475
200  682.125
199.9  677.65
199.8  663.575
199.7  654.525
199.6  637.325
199.5  623.95
199.4  610.8
199.3  608.35
199.2  595.975
199.1  593.1
199  592.9
198.9  589.575
198.8  582.225
198.7  579.525
198.6  604.45
198.5  578.55
198.4  572.2
198.3  575.2
198.2  578.225
198.1  571.825
198  571.7
197.9  572.325
197.8  572.125
197.7  575.375
197.6  580.725
197.5  570.1
197.4  569.3
197.3  572.375
197.2  570.9
197.1  574.2
197  569.05
196.9  576.425
196.8  577.4
196.7  572.975
196.6  576.9
196.5  578.225
196.4  584.125
196.3  581.6
196.2  584.225
196.1  583.675
196  584.95

# Region:            Si2p (2)
# Acquisition Date:  04/21/22 21:07:49 UTC
# Analysis Method:   XPS
# Analyzer:          Phoibos 100 R6
# Analyzer Lens:     LargeArea:1.5kV
# Analyzer Slit:     1:0.2x20\B:open
# Scan Mode:         FixedAnalyzerTransmission
# Curves/Scan:       1
# Values/Curve:      391
# Dwell Time:        0.8
# Excitation Energy: 1486.61
# Binding Energy:    128
# Pass Energy:       30
# Bias Voltage:      90
# Detector Voltage:  2600
# Eff. Workfunction: 4.309
# Source:            X-Ray Dummy
# Comment:           
#
# Cycle: 0
# Number of Scans: 10
#
# Cycle: 0, Curve: 0
# Acquisition Date: 04/21/22 21:07:49 UTC
#
# ColumnLabels: energy counts/s
#
128  460.75
127.9  447.25
127.8  438.875
127.7  435.125
127.6  444.875
127.5  453.75
127.4  452.75
127.3  441.75
127.2  439.875
127.1  445
127  446
126.9  442.5
126.8  435
126.7  439.625
126.6  441.25
126.5  444.875
126.4  443
126.3  450.375
126.2  435.5
126.1  444.875
126  430.5
125.9  431.75
125.8  434.875
125.7  438
125.6  450.625
125.5  445.375
125.4  439.875
125.3  431.75
125.2  439.5
125.1  433.875
125  429.875
124.9  424.375
124.8  422
124.7  437.125
124.6  431.875
124.5  426.5
124.4  435
124.3  417.875
124.2  428.125
124.1  430.625
124  399.25
123.9  423.75
123.8  423.375
123.7  411.75
123.6  430.5
123.5  413.625
123.4  427.75
123.3  417.5
123.2  424
123.1  406.75
123  410.375
122.9  415.125
122.8  404.5
122.7  407
122.6  414.75
122.5  414.25
122.4  407.625
122.3  416.375
122.2  416.5
122.1  419.625
122  413.75
121.9  421.875
121.8  400.25
121.7  408.75
121.6  395.625
121.5  401.375
121.4  476.625
121.3  420.375
121.2  390.875
121.1  412.25
121  402
120.9  392.375
120.8  402.625
120.7  394.875
120.6  406.125
120.5  412.5
120.4  405.625
120.3  382.375
120.2  405.875
120.1  393.125
120  398
119.9  397.25
119.8  399.625
119.7  395.375
119.6  377.5
119.5  392.375
119.4  378.875
119.3  391.875
119.2  385.875
119.1  377.125
119  399
118.9  395.75
118.8  380.75
118.7  385.5
118.6  374.625
118.5  375
118.4  382.375
118.3  368.375
118.2  369.125
118.1  368.5
118  366.875
117.9  358.625
117.8  365.375
117.7  364.875
117.6  371.25
117.5  378
117.4  371.875
117.3  364.25
117.2  357.875
117.1  362
117  356.5
116.9  365.625
116.8  367.25
116.7  371.75
116.6  357
116.5  352.125
116.4  357.125
116.3  354.5
116.2  342.125
116.1  350
116  350.75
115.9  350.75
115.8  344.875
115.7  345
115.6  346.25
115.5  338.125
115.4  347.875
115.3  353.5
115.2  347.75
115.1  344.5
115  342.5
114.9  340.125
114.8  340
114.7  343.875
114.6  328.625
114.5  331.625
114.4  328.875
114.3  336.125
114.2  338.875
114.1  335.75
114  328.5
113.9  322.625
113.8  329
113.7  316.625
113.6  336.875
113.5  336.25
113.4  327.75
113.3  338
113.2  332.875
113.1  324.125
113  323.625
112.9  333
112.8  314
112.7  333.25
112.6  310
112.5  328.25
112.4  328.75
112.3  337.375
112.2  325.625
112.1  341.875
112  325.375
111.9  320.375
111.8  336.625
111.7  331.75
111.6  329.375
111.5  325.5
111.4  335.125
111.3  326.75
111.2  327.125
111.1  333.875
111  340.5
110.9  317.625
110.8  322.625
110.7  341.5
110.6  332.25
110.5  346.375
110.4  332.25
110.3  336.625
110.2  334.125
110.1  329.625
110  338.5
109.9  350.375
109.8  335.125
109.7  342.875
109.6  354.125
109.5  339.875
109.4  346.625
109.3  349
109.2  350.125
109.1  352.875
109  347
108.9  372
108.8  352.875
108.7  368.375
108.6  364.75
108.5  385.875
108.4  380.25
108.3  409
108.2  404.125
108.1  421
108  442
107.9  454.375
107.8  476.625
107.7  510.125
107.6  537.375
107.5  570.5
107.4  622
107.3  662.5
107.2  726.625
107.1  755.75
107  817.375
106.9  872.625
106.8  940.25
106.7  998.25
106.6  1053.25
106.5  1123.375
106.4  1162.375
106.3  1174.125
106.2  1236
106.1  1226.375
106  1259
105.9  1246.125
105.8  1230.25
105.7  1214
105.6  1160.5
105.5  1106.625
105.4  1057.375
105.3  1005.5
105.2  940.75
105.1  873.875
105  815.25
104.9  753.625
104.8  687.625
104.7  638.5
104.6  600.75
104.5  545.5
104.4  507.625
104.3  494.375
104.2  435.5
104.1  433.5
104  421.25
103.9  407.25
103.8  381.625
103.7  369.75
103.6  366.125
103.5  347.375
103.4  360.125
103.3  342.625
103.2  347.5
103.1  350.375
103  349.125
102.9  331
102.8  331.75
102.7  329.75
102.6  329.875
102.5  327.5
102.4  323.375
102.3  335
102.2  321.25
102.1  325.5
102  316.75
101.9  328.5
101.8  322
101.7  309.25
101.6  322
101.5  336.75
101.4  319.375
101.3  316.625
101.2  309.75
101.1  322.875
101  323.125
100.9  313.75
100.8  315.625
100.7  312.75
100.6  313.125
100.5  321.875
100.4  314.375
100.3  324.75
100.2  305.125
100.1  314.75
100  313.5
99.9  328.375
99.8  322.875
99.7  323.25
99.6  312.875
99.5  321.125
99.4  324.375
99.3  305
99.2  319.75
99.1  307.375
99  303.375
98.9  317.75
98.8  317.75
98.7  320.125
98.6  318.875
98.5  312.875
98.4  306.5
98.3  317
98.2  313.375
98.1  313.125
98  310.5
97.9  327
97.8  335
97.7  328.875
97.6  330.5
97.5  330.875
97.4  350.875
97.3  337.75
97.2  346.625
97.1  367.5
97  360.75
96.9  373.875
96.8  374.625
96.7  395.25
96.6  408.125
96.5  415.25
96.4  421
96.3  439.75
96.2  442.25
96.1  447.625
96  452.625
95.9  475.625
95.8  490.25
95.7  495.375
95.6  504.5
95.5  508.75
95.4  515.25
95.3  527.375
95.2  515.125
95.1  510.5
95  529.25
94.9  494.375
94.8  507.5
94.7  505.625
94.6  472.25
94.5  483.375
94.4  448.75
94.3  469.625
94.2  471
94.1  453
94  441.875
93.9  449.75
93.8  435.5
93.7  454.25
93.6  446.375
93.5  458.375
93.4  483.625
93.3  489.375
93.2  497.625
93.1  505.875
93  501.125
92.9  505.5
92.8  535.875
92.7  540.875
92.6  539.625
92.5  521.625
92.4  519.875
92.3  508.875
92.2  517
92.1  490.5
92  467.375
91.9  459.5
91.8  441
91.7  436.875
91.6  406.75
91.5  397.375
91.4  388.625
91.3  366.875
91.2  346.75
91.1  327.25
91  333.875
90.9  339.5
90.8  314.25
90.7  322.875
90.6  308.75
90.5  312.875
90.4  309.25
90.3  314.125
90.2  305
90.1  312.375
90  301.25
89.9  306.125
89.8  301.5
89.7  294.625
89.6  311.625
89.5  300.875
89.4  308.75
89.3  304.625
89.2  303.75
89.1  305.875
89  316.875

# Region:            overview
# Acquisition Date:  04/21/22 16:32:00 UTC
# Analysis Method:   XPS
# Analyzer:          Phoibos 100 R6
# Analyzer Lens:     MediumArea:1.5kV
# Analyzer Slit:     1:0.2x20\B:open
# Scan Mode:         FixedAnalyzerTransmission
# Curves/Scan:       1
# Values/Curve:      1205
# Dwell Time:        0.2
# Excitation Energy: 1486.61
# Binding Energy:    1200
# Pass Energy:       50
# Bias Voltage:      90
# Detector Voltage:  2600
# Eff. Workfunction: 4.309
# Source:            X-Ray Dummy
# Comment:           
#
# Cycle: 0
# Number of Scans: 1
#
# Cycle: 0, Curve: 0
# Acquisition Date: 04/21/22 16:32:00 UTC
#
# ColumnLabels: energy counts/s
#
1200  2940
1199  2710
1198  2935
1197  2560
1196  2860
1195  2620
1194  2660
1193  2850
1192  2560
1191  2780
1190  2635
1189  2705
1188  2720
1187  2710
1186  2725
1185  2610
1184  2750
1183  2820
1182  2695
1181  2750
1180  2790
1179  2650
1178  2620
1177  2535
1176  2525
1175  2500
1174  2475
1173  2635
1172  2690
1171  2655
1170  2625
1169  2710
1168  2520
1167  2600
1166  2735
1165  2675
1164  2475
1163  2760
1162  2365
1161  2500
1160  2600
1159  2350
1158  2525
1157  2450
1156  2565
1155  2545
1154  2405
1153  2470
1152  2505
1151  2635
1150  2610
1149  2505
1148  2695
1147  2480
1146  2700
1145  2550
1144  2595
1143  2690
1142  2585
1141  2445
1140  2580
1139  2680
1138  2605
1137  2510
1136  2540
1135  2545
1134  2500
1133  2540
1132  2695
1131  2610
1130  2165
1129  2715
1128  2460
1127  2535
1126  2490
1125  2435
1124  2415
1123  2500
1122  2300
1121  2210
1120  2425
1119  2480
1118  2525
1117  2405
1116  2465
1115  2400
1114  2475
1113  2355
1112  2180
1111  2335
1110  2640
1109  2420
1108  2460
1107  2470
1106  2635
1105  2340
1104  2225
1103  2360
1102  2365
1101  2395
1100  2350
1099  2315
1098  2365
1097  2425
1096  2410
1095  2295
1094  2510
1093  2490
1092  2445
1091  2450
1090  2530
1089  2525
1088  2255
1087  2295
1086  2240
1085  2500
1084  2395
1083  2500
1082  2325
1081  2520
1080  2330
1079  2405
1078  2310
1077  2240
1076  2670
1075  2835
1074  2525
1073  2660
1072  2560
1071  2375
1070  2390
1069  2390
1068  2505
1067  2595
1066  2725
1065  2570
1064  2640
1063  2595
1062  2300
1061  2535
1060  2485
1059  2225
1058  2425
1057  2495
1056  2350
1055  2250
1054  2225
1053  2360
1052  2350
1051  2440
1050  2145
1049  2290
1048  2345
1047  2430
1046  2220
1045  2290
1044  2275
1043  2195
1042  2155
1041  2210
1040  2140
1039  2295
1038  2290
1037  2260
1036  2070
