# Created by:        SpecsLab Prodigy, Version 4.60.2-r85849 
#
# XY-Serializer Export Settings:
#   Comment Prefix:           #
#   Output meta data:         yes
#   Energy Axis:              Binding Energy
#   Count Rate:               Counts per Second
#   Separate Scan Data:       no
#   Separate Channel Data:    no
#   External Channel Data:    yes
#   Transmission Function:    no
#   ErrorBar:                 no
#   Operation Results:        yes
#   Time Zone Format:         UTC
#
# Group:             Spectrum Group
#
# Region:            overview
# Acquisition Date:  04/21/22 10:58:29 UTC
# Analysis Method:   XPS
# Analyzer:          Phoibos 100 R6
# Analyzer Lens:     MediumArea:1.5kV
# Analyzer Slit:     1:0.2x20\B:open
# Scan Mode:         FixedAnalyzerTransmission
# Curves/Scan:       1
# Values/Curve:      1205
# Dwell Time:        0.2
# Excitation Energy: 1486.61
# Binding Energy:    1200
# Pass Energy:       50
# Bias Voltage:      90
# Detector Voltage:  2600
# Eff. Workfunction: 4.309
# Source:            X-Ray Dummy
# Comment:           
#
# Cycle: 0
# Number of Scans: 1
#
# Cycle: 0, Curve: 0
# Acquisition Date: 04/21/22 10:58:29 UTC
#
# ColumnLabels: energy counts/s
#
1200  2600
1199  2610
1198  2765
1197  2695
1196  2645
1195  2615
1194  2670
1193  2600
1192  2810
1191  2535
1190  2475
1189  2535
1188  2625
1187  2510
1186  2480
1185  2525
1184  2685
1183  2555
1182  2710
1181  2525
1180  2465
1179  2360
1178  2650
1177  2495
1176  2510
1175  2465
1174  2655
1173  2575
1172  2520
1171  2500
1170  2305
1169  2435
1168  2495
1167  2295
1166  2775
1165  2265
1164  2535
1163  2540
1162  2525
1161  2395
1160  2315
1159  2540
1158  2450
1157  2420
1156  2530
1155  2355
1154  2240
1153  2505
1152  2395
1151  2545
1150  2445
1149  2390
1148  2535
1147  2500
1146  2430
1145  2245
1144  2495
1143  2490
1142  2455
1141  2445
1140  2420
1139  2405
1138  2355
1137  2615
1136  2455
1135  2595
1134  2505
1133  2345
1132  2410
1131  2230
1130  2475
1129  2395
1128  2385
1127  2370
1126  2380
1125  2300
1124  2605
1123  2710
1122  2370
1121  2490
1120  2205
1119  2175
1118  2460
1117  2230
1116  2175
1115  2490
1114  2365
1113  2375
1112  2180
1111  2185
1110  2520
1109  2360
1108  2210
1107  2420
1106  2385
1105  2510
1104  2270
1103  2280
1102  2180
1101  2260
1100  2230
1099  2085
1098  2280
1097  2375
1096  2320
1095  2210
1094  2340
1093  2330
1092  1995
1091  2405
1090  2300
1089  2240
1088  2300
1087  2440
1086  2250
1085  2110
1084  2205
1083  2250
1082  2185
1081  2215
1080  2285
1079  2265
1078  2225
1077  2445
1076  2360
1075  2445
1074  2640
1073  2420
1072  2460
1071  2355
1070  2110
1069  2150
1068  2155
1067  2300
1066  2200
1065  2315
1064  2190
1063  2360
1062  2435
1061  2210
1060  2265
1059  2295
1058  2255
1057  2200
1056  2415
1055  2275
1054  2240
1053  2220
1052  2220
1051  2160
1050  2200
1049  2090
1048  2195
1047  2260
1046  2020
1045  2220
1044  2245
1043  2205
1042  2065
1041  2290
1040  2145
1039  2330
1038  2135
1037  2140
1036  2210
1035  2145
1034  2120
1033  2200
1032  2205
1031  2165
1030  2140
1029  2200
1028  2070
1027  2135
1026  2165
1025  2195
1024  2070
1023  2145
1022  2210
1021  2095
1020  2210
1019  2335
1018  2145
1017  2190
1016  2295
1015  2030
1014  2125
1013  2280
1012  2170
1011  2355
1010  2160
1009  2170
1008  2330
1007  2180
1006  2300
1005  2345
1004  2275
1003  2355
1002  2245
1001  2290
1000  2065
999  2060
998  2050
997  2315
996  2040
995  2020
994  1875
993  1855
992  1865
991  1855
990  1835
989  1945
988  1820
987  2090
986  2105
985  2140
984  2140
983  2380
982  2170
981  2365
980  2570
979  1990
978  1875
977  2055
976  1855
975  1605
974  1575
973  1495
972  1725
971  1640
970  1400
969  1545
968  1340
967  1470
966  1320
965  1325
964  1365
963  1360
962  1370
961  1250
960  1220
959  1305
958  1255
957  1310
956  1330
955  1330
954  1430
953  1450
952  1430
951  1200
950  1340
949  1315
948  1475
947  1340
946  1365
945  1335
944  1465
943  1365
942  1285
941  1355
940  1235
939  1405
938  1345
937  1305
936  1365
935  1135
934  1385
933  1330
932  1370
931  1405
930  1445
929  1425
928  1445
927  1225
926  1180
925  1335
924  1425
923  1430
922  1350
921  1395
920  1205
919  1355
918  1280
917  1370
916  1285
915  1515
914  1310
913  1330
912  1460
911  1310
910  1295
909  1325
908  1260
907  1290
906  1430
905  1290
904  1170
903  1365
902  1295
901  1335
900  1490
899  1290
898  1220
897  1455
896  1275
895  1245
894  1310
893  1410
892  1310
891  1340
890  1280
889  1435
888  1240
887  1255
886  1525
885  1330
884  1440
883  1255
882  1285
881  1315
880  1280
879  1350
878  1435
877  1280
876  1430
875  1545
874  1370
873  1210
872  1330
871  1260
870  1490
869  1340
868  1310
867  1290
866  1305
865  1420
864  1425
863  1435
862  1395
861  1280
860  1290
859  1390
858  1345
857  1465
856  1350
855  1420
854  1330
853  1305
852  1420
851  1390
850  1485
849  1400
848  1325
847  1325
846  1425
845  1540
844  1340
843  1355
842  1455
841  1385
840  1305
839  1355
838  1285
837  1425
836  1355
835  1275
834  1300
833  1315
832  1315
831  1275
830  1410
829  1205
828  1415
827  1340
826  1305
825  1310
824  1320
823  1380
822  1180
821  1375
820  1380
819  1340
818  1235
817  1425
816  1530
815  1355
814  1585
813  1425
812  1315
811  1480
810  1370
809  1495
808  1370
807  1280
806  1450
805  1510
804  1400
803  1225
802  1225
801  1305
800  1380
799  1285
798  1290
797  1415
796  1470
795  1160
794  1365
793  1410
792  1400
791  1335
790  1210
789  1330
788  1375
787  1320
786  1470
785  1405
784  1545
783  1325
782  1485
781  1320
780  1375
779  1480
778  1465
777  1430
776  1540
775  1150
774  1245
773  1415
772  1445
771  1430
770  1505
769  1425
768  1460
767  1355
766  1365
765  1410
764  1370
763  1515
762  1510
761  1380
760  1400
759  1415
758  1280
757  1490
756  1595
755  1320
754  1465
753  1485
752  1450
751  1515
750  1400
749  1405
748  1460
747  1410
746  1450
745  1405
744  1440
743  1510
742  1370
741  1485
740  1540
739  1520
738  1490
737  1410
736  1515
735  1610
734  1500
733  1550
732  1440
731  1325
730  1515
729  1265
728  1490
727  1405
726  1515
725  1450
724  1515
723  1535
722  1420
721  1465
720  1525
719  1450
718  1525
717  1290
716  1385
715  1425
714  1485
713  1490
712  1450
711  1645
710  1500
709  1490
708  1560
707  1485
706  1490
705  1500
704  1520
703  1400
702  1600
701  1410
700  1465
699  1515
698  1360
697  1335
696  1620
695  1310
694  1705
693  1525
692  1565
691  1540
690  1465
689  1655
688  1685
687  1570
686  1530
685  1505
684  1650
683  1540
682  1560
681  1655
680  1540
679  1710
678  1570
677  1630
676  1595
675  1465
674  1665
673  1535
672  1665
671  1595
670  1575
669  1555
668  1665
667  1475
666  1575
665  1600
664  1630
663  1670
662  1725
661  1595
660  1450
659  1560
658  1670
657  1540
656  1380
655  1580
654  1670
653  1655
652  1620
651  1615
650  1550
649  1640
648  1630
647  1580
646  1635
645  1605
644  1670
643  1625
642  1560
641  1610
640  1755
639  1640
638  1750
637  1805
636  1620
635  1585
634  1775
633  1615
632  1665
631  1720
630  1640
629  1550
628  1645
627  1665
626  1580
625  1640
624  1735
623  1640
622  1875
621  1615
620  1650
619  1580
618  1705
617  1760
616  1615
615  1745
614  1800
613  1755
612  1665
611  1745
610  1780
609  1895
608  1805
607  1680
606  1655
605  1765
604  1860
603  1685
602  1690
601  1790
600  1705
599  1760
598  1920
597  1775
596  1810
595  1815
594  1830
593  1725
592  1655
591  1795
590  1920
589  1820
588  1745
587  1760
586  1755
585  1835
584  1955
583  1675
582  1895
581  1675
580  1790
579  1655
578  1920
577  1765
576  1720
575  1885
574  1765
573  1740
572  1655
571  1750
570  1815
569  1750
568  1645
567  1835
566  1920
565  1875
564  1810
563  1960
562  1930
561  1910
560  1910
559  2040
558  2060
557  1920
556  1850
555  1795
554  1705
553  1725
552  1620
551  1570
550  1540
549  1670
548  1335
547  1440
546  1390
545  1105
544  990
543  1140
542  975
541  1090
540  1120
539  1225
538  1395
537  2605
536  5805
535  7495
534  4765
533  1960
532  1230
531  1035
530  970
529  935
528  880
527  980
526  1235
525  1210
524  1170
523  1045
522  980
521  805
520  835
519  795
518  755
517  925
516  735
515  875
514  935
513  755
512  765
511  730
510  805
509  760
508  710
507  795
506  690
505  635
504  830
503  770
502  695
501  825
500  795
499  920
498  745
497  690
496  870
495  800
494  810
493  725
492  775
491  765
490  700
489  765
488  700
487  775
486  670
485  690
484  760
483  685
482  805
481  805
480  685
479  725
478  735
477  705
476  645
475  730
474  780
473  900
472  735
471  740
470  735
469  650
468  870
467  835
466  700
465  735
464  840
463  790
462  730
461  855
460  620
459  680
458  695
457  710
456  700
455  810
454  720
453  770
452  725
451  655
450  785
449  820
448  810
447  665
446  730
445  790
444  730
443  730
442  745
441  665
440  760
439  730
438  740
437  705
436  710
435  825
434  700
433  805
432  725
431  645
430  745
429  700
428  815
427  775
426  810
425  805
424  895
423  670
422  730
421  765
420  815
419  650
418  750
417  690
416  775
415  725
414  690
413  785
412  795
411  735
410  715
409  805
408  705
407  635
406  735
405  805
404  715
403  850
402  830
401  830
400  825
399  760
398  680
397  665
396  715
395  750
394  800
393  710
392  795
391  640
390  760
389  765
388  835
387  765
386  750
385  770
384  735
383  755
382  835
381  710
380  840
379  815
378  770
377  730
376  760
375  835
374  795
373  760
372  810
371  740
370  775
369  725
368  770
367  810
366  710
365  840
364  760
363  855
362  765
361  740
360  755
359  835
358  815
357  900
356  725
355  760
354  740
353  935
352  765
351  790
350  760
349  930
348  755
347  740
346  850
345  820
344  775
343  860
342  710
341  940
340  735
339  900
338  785
337  850
336  820
335  830
334  875
333  735
332  805
331  840
330  805
329  960
328  785
327  855
326  860
325  725
324  700
323  870
322  835
321  935
320  860
319  765
318  800
317  895
316  900
315  935
314  910
313  885
312  735
311  765
310  775
309  930
308  855
307  925
306  860
305  910
304  760
303  795
302  725
301  770
300  945
299  785
298  820
297  775
296  740
295  790
294  845
293  860
292  935
291  1110
290  1195
289  1330
288  1890
287  1715
286  1205
285  870
284  850
283  830
282  900
281  745
280  770
279  1015
278  850
277  875
276  860
275  820
274  915
273  740
272  900
271  780
270  830
269  820
268  755
267  825
266  685
265  810
264  910
263  770
262  780
261  790
260  810
259  780
258  700
257  695
256  795
255  755
254  830
253  795
252  775
251  755
250  685
249  900
248  850
247  770
246  815
245  815
244  695
243  695
242  850
241  675
240  810
239  750
238  875
237  765
236  820
235  775
234  860
233  745
232  730
231  720
230  770
229  675
228  855
227  715
226  875
225  745
224  800
223  815
222  825
221  870
220  760
219  700
218  820
217  755
216  795
215  725
214  770
213  750
212  795
211  625
210  800
209  845
208  810
207  855
206  820
205  810
204  655
203  785
202  790
201  820
200  860
199  740
198  900
197  880
196  710
195  775
194  815
193  720
192  760
191  805
190  765
189  820
188  880
187  875
186  860
185  845
184  940
183  860
182  835
181  960
180  880
179  925
178  765
177  825
176  825
175  770
174  875
173  880
172  870
171  710
170  735
169  750
168  665
167  815
166  655
165  630
164  600
163  690
162  760
161  770
160  825
159  1040
158  1305
157  1800
156  1500
155  1075
154  820
153  875
152  625
151  745
150  645
149  640
148  735
147  650
146  745
145  625
144  690
143  585
142  670
141  545
140  640
139  610
138  625
137  555
136  580
135  595
134  610
133  580
132  575
131  650
130  705
129  685
128  665
127  740
126  680
125  680
124  625
123  620
122  620
121  640
120  510
119  495
118  470
117  485
116  520
115  525
114  480
113  510
112  480
111  450
110  520
109  510
108  745
107  1340
106  1885
105  1350
104  755
103  500
102  520
101  320
100  470
99  420
98  400
97  500
96  530
95  565
94  480
93  445
92  410
91  390
90  420
89  490
88  455
87  545
86  505
85  400
84  460
83  430
82  455
81  375
80  385
79  390
78  440
77  405
76  485
75  360
74  540
73  485
72  370
71  380
70  400
69  350
68  420
67  325
66  475
65  400
64  455
63  440
62  385
61  440
60  550
59  450
58  440
57  495
56  420
55  440
54  395
53  385
52  475
51  390
50  500
49  420
48  410
47  415
46  490
45  475
44  460
43  435
42  500
41  465
40  410
39  500
38  500
37  395
36  510
35  505
34  420
33  440
32  435
31  525
30  510
29  560
28  570
27  600
26  575
25  370
24  350
23  440
22  450
21  380
20  390
19  480
18  410
17  430
16  460
15  370
14  385
13  430
12  405
11  425
10  370
9  410
8  425
7  325
6  405
5  390
4  375
3  350
2  380
1  345
-2.2737368e-013  380
-1  290
-2  380
-3  370
-4  330

# Region:            Ba3d
# Acquisition Date:  04/21/22 11:47:39 UTC
# Analysis Method:   XPS
# Analyzer:          Phoibos 100 R6
# Analyzer Lens:     LargeArea:1.5kV
# Analyzer Slit:     1:0.2x20\B:open
# Scan Mode:         FixedAnalyzerTransmission
# Curves/Scan:       1
# Values/Curve:      121
# Dwell Time:        0.8
# Excitation Energy: 1486.61
# Binding Energy:    789
# Pass Energy:       30
# Bias Voltage:      90
# Detector Voltage:  2600
# Eff. Workfunction: 4.309
# Source:            X-Ray Dummy
# Comment:           
#
# Cycle: 0
# Number of Scans: 4
#
# Cycle: 0, Curve: 0
# Acquisition Date: 04/21/22 11:47:39 UTC
#
# ColumnLabels: energy counts/s
#
789  1770.3125
788.9  1751.25
788.8  1755.9375
788.7  1785.625
788.6  1769.375
788.5  1790.625
788.4  1752.5
788.3  1702.5
788.2  1747.5
788.1  1731.875
788  1777.8125
787.9  1745.625
787.8  1728.125
787.7  1742.8125
787.6  1749.6875
787.5  1748.125
787.4  1726.875
787.3  1748.125
787.2  1771.25
787.1  1760.625
787  1721.5625
786.9  1739.375
786.8  1741.25
786.7  1730.625
786.6  1705.3125
786.5  1760.9375
786.4  1730
786.3  1784.6875
786.2  1770.9375
786.1  1770.3125
786  1770.9375
785.9  1740.625
785.8  1799.0625
785.7  1731.5625
785.6  1720.3125
785.5  1747.1875
785.4  1770.625
785.3  1768.75
785.2  1750
785.1  1700.3125
785  1756.5625
784.9  1712.8125
784.8  1742.5
784.7  1702.1875
784.6  1730.3125
784.5  1723.125
784.4  1779.6875
784.3  1781.25
784.2  1740.9375
784.1  1775.3125
784  1771.25
783.9  1725.3125
783.8  1748.75
783.7  1726.875
783.6  1734.0625
783.5  1728.4375
783.4  1760
783.3  1760.625
783.2  1756.5625
783.1  1784.375
783  1784.375
782.9  1742.1875
782.8  1770
782.7  1797.5
782.6  1742.5
782.5  1739.0625
782.4  1714.375
782.3  1738.75
782.2  1719.6875
782.1  1771.5625
782  1749.0625
781.9  1715.625
781.8  1751.5625
781.7  1782.5
781.6  1765.3125
781.5  1728.75
781.4  1744.6875
781.3  1760.9375
781.2  1739.6875
781.1  1761.875
781  1732.1875
780.9  1727.1875
780.8  1739.0625
780.7  1807.5
780.6  1735.9375
780.5  1746.5625
780.4  1736.875
780.3  1702.8125
780.2  1734.375
780.1  1745
780  1752.5
779.9  1724.6875
779.8  1761.5625
779.7  1721.5625
779.6  1768.4375
779.5  1744.6875
779.4  1735
779.3  1786.5625
779.2  1803.125
779.1  1752.8125
779  1750.625
778.9  1789.375
778.8  1761.875
778.7  1772.8125
778.6  1773.125
778.5  1725.9375
778.4  1769.375
778.3  1794.6875
778.2  1732.5
778.1  1777.5
778  1715
777.9  1705
777.8  1732.1875
777.7  1728.125
777.6  1695.625
777.5  1752.8125
777.4  1743.75
777.3  1799.6875
777.2  1701.875
777.1  1775.9375
777  1700.9375

# Region:            C1s (2)
# Acquisition Date:  04/21/22 12:18:31 UTC
# Analysis Method:   XPS
# Analyzer:          Phoibos 100 R6
# Analyzer Lens:     LargeArea:1.5kV
# Analyzer Slit:     1:0.2x20\B:open
# Scan Mode:         FixedAnalyzerTransmission
# Curves/Scan:       1
# Values/Curve:      151
# Dwell Time:        0.8
# Excitation Energy: 1486.61
# Binding Energy:    295
# Pass Energy:       30
# Bias Voltage:      90
# Detector Voltage:  2600
# Eff. Workfunction: 4.309
# Source:            X-Ray Dummy
# Comment:           
#
# Cycle: 0
# Number of Scans: 7
#
# Cycle: 0, Curve: 0
# Acquisition Date: 04/21/22 12:18:31 UTC
#
# ColumnLabels: energy counts/s
#
295  608.39286
294.9  615.71429
294.8  623.21429
294.7  609.28571
294.6  608.03571
294.5  635.53571
294.4  625.71429
294.3  601.96429
294.2  633.03571
294.1  630.17857
294  643.75
293.9  615.17857
293.8  622.67857
293.7  628.03571
293.6  627.14286
293.5  637.5
293.4  626.78571
293.3  624.10714
293.2  606.42857
293.1  632.5
293  648.03571
292.9  636.42857
292.8  644.46429
292.7  635.35714
292.6  641.07143
292.5  643.92857
292.4  629.28571
292.3  659.28571
292.2  659.10714
292.1  667.67857
292  668.75
291.9  688.03571
291.8  682.14286
291.7  670.71429
291.6  697.85714
291.5  699.10714
291.4  686.42857
291.3  719.46429
291.2  724.64286
291.1  720.53571
291  735
290.9  739.82143
290.8  747.14286
290.7  770.17857
290.6  787.85714
290.5  770.17857
290.4  798.03571
290.3  800.35714
290.2  803.75
290.1  831.60714
290  841.42857
289.9  872.14286
289.8  871.07143
289.7  906.25
289.6  901.42857
289.5  959.10714
289.4  939.64286
289.3  982.32143
289.2  1011.7857
289.1  1024.6429
289  1072.8571
288.9  1115
288.8  1121.4286
288.7  1140.8929
288.6  1154.8214
288.5  1173.75
288.4  1215.3571
288.3  1241.4286
288.2  1258.0357
288.1  1298.75
288  1289.4643
287.9  1356.25
287.8  1363.5714
287.7  1372.5
287.6  1381.7857
287.5  1376.0714
287.4  1347.6786
287.3  1366.25
287.2  1346.4286
287.1  1299.2857
287  1259.4643
286.9  1223.75
286.8  1176.7857
286.7  1123.2143
286.6  1058.0357
286.5  1007.6786
286.4  954.64286
286.3  919.28571
286.2  863.92857
286.1  825.71429
286  801.42857
285.9  771.25
285.8  736.78571
285.7  705.53571
285.6  655.71429
285.5  676.78571
285.4  651.78571
285.3  653.75
285.2  629.46429
285.1  614.28571
285  629.28571
284.9  614.64286
284.8  613.57143
284.7  609.28571
284.6  585.35714
284.5  613.75
284.4  578.39286
284.3  606.07143
284.2  587.14286
284.1  580.53571
284  578.92857
283.9  586.60714
283.8  575.89286
283.7  594.64286
283.6  592.85714
283.5  574.82143
283.4  587.67857
283.3  593.75
283.2  555.53571
283.1  576.07143
283  582.67857
282.9  575
282.8  559.46429
282.7  593.39286
282.6  592.14286
282.5  567.67857
282.4  579.10714
282.3  577.67857
282.2  582.14286
282.1  604.10714
282  602.5
281.9  582.32143
281.8  582.14286
281.7  585.53571
281.6  589.28571
281.5  593.39286
281.4  573.75
281.3  595.53571
281.2  613.39286
281.1  592.67857
281  586.42857
280.9  580
280.8  573.57143
280.7  595.53571
280.6  573.75
280.5  584.10714
280.4  593.03571
280.3  590.71429
280.2  598.21429
280.1  579.10714
280  572.14286

# Region:            O1s
# Acquisition Date:  04/21/22 12:42:10 UTC
# Analysis Method:   XPS
# Analyzer:          Phoibos 100 R6
# Analyzer Lens:     LargeArea:1.5kV
# Analyzer Slit:     1:0.2x20\B:open
# Scan Mode:         FixedAnalyzerTransmission
# Curves/Scan:       1
# Values/Curve:      141
# Dwell Time:        0.8
# Excitation Energy: 1486.61
# Binding Energy:    541
# Pass Energy:       30
# Bias Voltage:      90
# Detector Voltage:  2600
# Eff. Workfunction: 4.309
# Source:            X-Ray Dummy
# Comment:           
#
# Cycle: 0
# Number of Scans: 10
#
# Cycle: 0, Curve: 0
# Acquisition Date: 04/21/22 12:42:10 UTC
#
# ColumnLabels: energy counts/s
#
541  951.5
540.9  930.125
540.8  958.5
540.7  964
540.6  950.125
540.5  957
540.4  958
540.3  973.25
540.2  963.625
540.1  964.5
540  977.125
539.9  1004.375
539.8  992.375
539.7  994.875
539.6  1014.625
539.5  991.625
539.4  1041.25
539.3  1050.625
539.2  1045.875
539.1  1054.875
539  1047.5
538.9  1071.5
538.8  1090.125
538.7  1118.625
538.6  1126.5
538.5  1129.625
538.4  1137.125
538.3  1149.25
538.2  1205.75
538.1  1195.625
538  1214.625
537.9  1255.75
537.8  1321.625
537.7  1335.875
537.6  1375.25
537.5  1471.375
537.4  1565.875
537.3  1654.125
537.2  1729.5
537.1  1916.5
537  2049
536.9  2230
536.8  2467.125
536.7  2713.375
536.6  3003.5
536.5  3310.5
536.4  3623.75
536.3  4070.875
536.2  4405.5
536.1  4825.875
536  5239.625
535.9  5672.125
535.8  6028.375
535.7  6424
