# Created by:        SpecsLab Prodigy, Version 4.74.2-r95700
#
# XY-Serializer Export Settings:
#   Comment Prefix:           #
#   Output Meta Data:         yes
#   Energy Axis:              Binding Energy
#   Count Rate:               Counts per Second
#   Separate Scan Data:       no
#   Separate Channel Data:    no
#   External Channel Data:    yes
#   Transmission Function:    no
#   Error Bar:                no
#   Operation Results:        yes
#   Time Zone Format:         UTC
#
# Group:             z546p5_x4p5
#
# Region:            overview
# Spectrum ID:       2
# Acquisition Date:  06/23/22 12:30:13 UTC
# Analysis Method:   XPS
# Analyzer:          Analyzer
# Analyzer Lens:     MediumArea:1.5kV
# Analyzer Slit:     4:3x20\B:open
# Scan Mode:         FixedAnalyzerTransmission
# Curves/Scan:       1
# Values/Curve:      941
# Dwell Time:        0.1
# Excitation Energy: 1486.71
# Binding Energy:    936.71
# Pass Energy:       50
# Bias Voltage:      -1
# Detector Voltage:  1800
# Eff. Workfunction: 4.498
# Source:            XR 50 MF (UXC1000)
# Comment:           x=3.5, y=13 z=554 (center), th=40, slit 4, Iris 40, RT=299K
# OrdinateRange:     [-7.000000, 7.000000]
#
# Cycle: 0
# Number of Scans: 1
#
# Cycle: 0, Curve: 0
# Acquisition Date: 06/23/22 12:30:13 UTC
#
# ColumnLabels: energy counts/s
#
936.71  8.111727
935.71  8.0148408
934.71  9.7957617
933.71  7.87422
932.71  7.2708879
931.71  6.7969122
930.71  6.9403932
929.71  7.5284122
928.71  6.4146927
927.71  7.4106386
926.71  8.9503431
925.71  8.0692763
924.71  6.4865657
923.71  7.3822658
922.71  8.3106661
921.71  7.3405487
920.71  6.9276989
919.71  7.3745438
918.71  8.5564667
917.71  7.7559055
916.71  7.4238713
915.71  7.8607871
914.71  6.6570917
913.71  7.6388192
912.71  8.1364538
911.71  8.4345652
910.71  7.2336803
909.71  7.1766205
908.71  7.8218043
907.71  8.912486
906.71  8.199067
905.71  8.3666525
904.71  8.402566
903.71  8.8645279
902.71  7.9915659
901.71  9.1677788
900.71  10.177964
899.71  9.099314
898.71  8.6971975
897.71  8.8102779
896.71  8.0602038
895.71  8.7752891
894.71  6.9696699
893.71  7.1417718
892.71  8.9113124
891.71  9.8710451
890.71  9.490315
889.71  8.9233292
888.71  10.250519
887.71  9.6646941
886.71  7.9566973
885.71  9.5029874
884.71  8.4321187
883.71  8.3299016
882.71  8.2221055
881.71  7.3001983
880.71  8.8803111
879.71  7.8078353
878.71  7.4773949
877.71  7.2782447
876.71  8.1343203
875.71  9.5702353
874.71  9.3104446
873.71  9.4554648
872.71  9.031753
871.71  8.8268382
870.71  9.1734659
869.71  8.9817879
868.71  9.4866608
867.71  8.6237454
866.71  8.4844025
865.71  9.7247551
864.71  10.079107
863.71  9.2518634
862.71  8.4418261
861.71  9.1731387
860.71  10.094029
859.71  9.4845153
858.71  9.9713717
857.71  10.254042
856.71  9.946249
855.71  9.9317215
854.71  10.067053
853.71  10.29708
852.71  9.8009354
851.71  9.3018246
850.71  8.7269129
849.71  9.402367
848.71  8.5186707
847.71  8.5700394
846.71  8.5398475
845.71  9.6744662
844.71  9.6896935
843.71  8.6973618
842.71  10.155691
841.71  9.2085421
840.71  8.3659639
839.71  9.0487257
838.71  11.030383
837.71  9.7369834
836.71  8.6535053
835.71  10.090646
834.71  10.236771
833.71  10.650102
832.71  10.202397
831.71  9.6133972
830.71  9.6634474
829.71  10.344889
828.71  10.529185
827.71  9.6554581
826.71  10.075069
825.71  11.672958
824.71  11.99596
823.71  10.801385
822.71  9.7788091
821.71  10.007155
820.71  11.335421
819.71  10.567638
818.71  10.524221
817.71  11.131367
816.71  9.6719619
815.71  10.779698
814.71  10.673387
813.71  10.656349
812.71  10.776825
811.71  11.376899
810.71  11.348518
809.71  10.678184
808.71  10.978612
807.71  10.438617
806.71  10.426208
805.71  9.9178704
804.71  10.848951
803.71  10.43811
802.71  10.027833
801.71  10.732338
800.71  10.659353
799.71  11.253694
798.71  11.826862
797.71  13.517157
796.71  12.001399
795.71  10.238768
794.71  10.386654
793.71  9.6881503
792.71  10.529754
791.71  10.100688
790.71  9.9157605
789.71  10.241565
788.71  9.8623883
787.71  9.7424882
786.71  10.252706
785.71  9.2921119
784.71  10.993576
783.71  13.657423
782.71  14.35173
781.71  14.469966
780.71  13.743674
779.71  9.6627656
778.71  9.8397716
777.71  10.28305
776.71  9.9919629
775.71  11.219822
774.71  9.6987325
773.71  10.384379
772.71  10.217607
771.71  9.9638443
770.71  10.936516
769.71  11.051161
768.71  10.289517
767.71  10.194214
766.71  11.854348
765.71  9.6532225
764.71  10.054737
763.71  10.292051
762.71  9.6479497
761.71  10.517287
760.71  11.062536
759.71  11.369265
758.71  11.337649
757.71  10.203044
756.71  9.7472515
755.71  10.872916
754.71  10.939911
753.71  10.367185
752.71  10.876883
751.71  11.432002
750.71  10.621671
749.71  9.6071041
748.71  11.558499
747.71  11.106217
746.71  10.84115
745.71  10.558616
744.71  11.683531
743.71  10.455769
742.71  9.660856
741.71  10.880485
740.71  9.2527065
739.71  11.084026
738.71  12.585667
737.71  10.528897
736.71  10.94671
735.71  11.67799
734.71  11.694518
733.71  11.512908
732.71  12.514293
731.71  11.779605
730.71  11.33879
729.71  11.55012
728.71  10.193948
727.71  10.847402
726.71  10.959491
725.71  10.306746
724.71  11.636958
723.71  12.25494
722.71  12.302858
721.71  11.707336
720.71  12.000117
719.71  11.761838
718.71  10.456394
717.71  10.604962
716.71  10.382478
715.71  10.643288
714.71  11.331062
713.71  11.818251
712.71  12.933972
711.71  9.9446926
710.71  11.564635
709.71  11.145436
708.71  11.586301
707.71  11.443211
706.71  11.314224
705.71  12.306199
704.71  12.275672
703.71  12.887479
702.71  10.659823
701.71  10.919195
700.71  11.804529
699.71  12.100564
698.71  12.700721
697.71  12.611628
696.71  10.55351
695.71  10.829569
694.71  12.37066
693.71  12.229758
692.71  12.852795
691.71  11.734316
690.71  11.942623
689.71  12.849418
688.71  13.731997
687.71  11.985066
686.71  11.983652
685.71  11.922177
684.71  12.657874
683.71  11.057121
682.71  11.057201
681.71  12.216576
680.71  13.305586
679.71  12.823297
678.71  11.862211
677.71  12.53259
676.71  12.898686
675.71  13.318056
674.71  11.965404
673.71  11.759272
672.71  11.644788
671.71  12.475568
670.71  13.360104
669.71  12.87163
668.71  12.407242
667.71  12.692681
666.71  12.324468
665.71  10.879319
664.71  13.366557
663.71  13.369503
662.71  13.711447
661.71  12.549346
660.71  12.270419
659.71  13.029076
658.71  13.96285
657.71  12.362607
656.71  11.245435
655.71  11.978642
654.71  12.36224
653.71  12.309324
652.71  14.858486
651.71  13.964737
650.71  14.165085
649.71  13.270743
648.71  11.834605
647.71  11.36224
646.71  11.458122
645.71  14.314138
644.71  13.321708
643.71  13.498031
642.71  14.19528
641.71  13.199151
640.71  12.925961
639.71  12.96927
638.71  14.397437
637.71  14.880054
636.71  14.75831
635.71  13.936944
634.71  13.610377
633.71  13.387592
632.71  14.844779
631.71  14.574366
630.71  15.041119
629.71  13.356409
628.71  14.969624
627.71  13.881321
626.71  15.413779
625.71  13.071755
624.71  13.810207
623.71  14.197271
622.71  13.738437
621.71  13.214075
620.71  13.654444
619.71  12.686126
618.71  14.524261
617.71  13.773248
616.71  14.313208
615.71  13.668914
614.71  13.326261
613.71  14.088862
612.71  16.161989
611.71  14.270493
610.71  14.43581
609.71  15.000398
608.71  15.043734
607.71  13.186765
606.71  14.92089
605.71  13.488908
604.71  13.197424
603.71  14.158263
602.71  15.504955
601.71  15.932354
600.71  17.141354
599.71  14.078151
598.71  15.055668
597.71  14.321877
596.71  12.744623
595.71  15.219301
594.71  16.86978
593.71  14.931791
592.71  14.132687
591.71  14.967471
590.71  14.909776
589.71  14.985553
588.71  14.409933
587.71  14.621117
586.71  15.6368
585.71  12.80985
584.71  13.07494
583.71  12.436116
582.71  14.01949
581.71  15.342698
580.71  16.485907
579.71  14.39031
578.71  14.752508
577.71  15.567913
576.71  14.591614
575.71  13.722943
574.71  16.17684
573.71  17.00367
572.71  15.577081
571.71  15.506939
570.71  15.906969
569.71  15.725145
568.71  14.561538
567.71  15.400683
566.71  16.50022
565.71  15.635008
564.71  15.353685
563.71  14.288801
562.71  15.019836
561.71  16.306759
560.71  15.857205
559.71  15.019361
558.71  16.179832
557.71  15.528577
556.71  15.26171
555.71  17.4397
554.71  16.012887
553.71  15.684985
552.71  17.714781
551.71  16.107117
550.71  15.61747
549.71  15.258516
548.71  16.501192
547.71  15.949502
546.71  14.852614
545.71  16.228408
544.71  13.007168
543.71  13.739435
542.71  14.451163
541.71  13.317796
540.71  11.788792
539.71  13.056821
538.71  14.126744
537.71  13.527412
536.71  13.313955
535.71  16.671332
534.71  21.463209
533.71  23.553364
532.71  23.74885
531.71  25.998554
530.71  18.87151
529.71  15.25212
528.71  13.034161
527.71  12.615205
526.71  11.597888
525.71  13.566245
524.71  13.235414
523.71  14.08008
522.71  14.918777
521.71  12.979277
520.71  12.54911
519.71  12.407148
518.71  11.057921
517.71  12.487623
516.71  13.220091
515.71  13.030473
514.71  13.644137
513.71  11.68202
512.71  13.602477
511.71  13.506164
510.71  12.658995
509.71  14.329606
508.71  13.513775
507.71  11.896517
506.71  13.254084
505.71  12.665081
504.71  12.719201
503.71  11.779414
502.71  13.130801
501.71  13.528085
500.71  12.927594
499.71  12.328817
498.71  12.086176
497.71  13.219246
496.71  13.289386
495.71  12.750241
494.71  12.660564
493.71  13.748285
492.71  14.596591
491.71  13.685256
490.71  12.759023
489.71  12.532756
488.71  12.020211
487.71  12.637939
486.71  12.522356
485.71  14.21335
484.71  13.255323
483.71  14.525491
482.71  13.663383
481.71  13.353597
480.71  13.278087
479.71  13.691824
478.71  12.688567
477.71  13.296032
476.71  13.235478
475.71  12.93169
474.71  12.304756
473.71  12.698059
472.71  13.344095
471.71  13.268605
470.71  12.234527
469.71  13.55725
468.71  15.983622
467.71  14.299319
466.71  15.651807
465.71  12.598623
464.71  12.928165
463.71  13.224965
462.71  13.487457
461.71  13.29326
460.71  13.449512
459.71  13.358568
458.71  13.880945
457.71  12.761639
456.71  16.130618
455.71  13.951703
454.71  14.139195
453.71  14.44518
452.71  12.396124
451.71  13.118636
450.71  13.247424
449.71  11.989091
448.71  12.140093
447.71  12.869179
446.71  12.020013
445.71  13.725293
444.71  13.224266
443.71  13.848428
442.71  13.238371
441.71  13.477439
440.71  13.842443
439.71  12.668279
438.71  14.877288
437.71  13.794559
436.71  13.816031
435.71  14.298923
434.71  15.112602
433.71  14.30243
432.71  15.29285
431.71  13.345843
430.71  12.952134
429.71  13.624988
428.71  13.943783
427.71  13.55625
426.71  13.412979
425.71  12.570756
424.71  13.483463
423.71  13.796685
422.71  12.452333
421.71  13.491264
420.71  14.521482
419.71  14.066573
418.71  14.855337
417.71  14.041263
416.71  12.143039
415.71  12.04785
414.71  13.059866
413.71  13.467858
412.71  14.646356
411.71  13.473929
410.71  11.675247
409.71  14.592638
408.71  14.239451
407.71  13.048822
406.71  14.061769
405.71  14.121903
404.71  15.988058
403.71  14.010018
402.71  12.946959
401.71  13.26671
400.71  13.666335
399.71  13.640496
398.71  13.579332
397.71  12.647529
396.71  12.802243
395.71  12.438583
394.71  12.944099
393.71  13.112296
392.71  13.555074
391.71  12.752501
390.71  13.065916
389.71  12.118318
388.71  11.885212
387.71  13.236619
386.71  12.276305
385.71  12.18122
384.71  13.039784
383.71  13.385633
382.71  13.606064
381.71  14.316533
380.71  13.56937
379.71  12.465941
378.71  13.910212
377.71  14.084459
376.71  12.539854
375.71  13.052461
374.71  12.319642
373.71  11.404574
372.71  12.997929
371.71  13.522255
370.71  13.475296
369.71  12.918573
368.71  13.620607
367.71  14.278439
366.71  13.098915
365.71  14.295783
364.71  13.213058
363.71  14.33511
362.71  13.146178
361.71  15.352943
360.71  13.864564
359.71  13.637749
358.71  14.521016
357.71  14.431703
356.71  13.933368
355.71  15.249732
354.71  14.895606
353.71  14.070272
352.71  13.287115
351.71  14.276008
350.71  14.031369
349.71  14.25972
348.71  13.347876
347.71  14.397257
346.71  14.622122
345.71  14.37953
344.71  13.350474
343.71  15.017821
342.71  14.017058
341.71  15.283696
340.71  14.611628
339.71  15.598097
338.71  14.925818
337.71  17.026385
336.71  13.976234
335.71  12.624972
334.71  14.694038
333.71  14.162632
332.71  13.405796
331.71  14.594904
330.71  15.990109
329.71  14.040032
328.71  13.102715
327.71  14.10593
326.71  15.876825
325.71  14.813518
324.71  15.145371
323.71  16.04956
322.71  15.045684
321.71  15.949872
320.71  16.495776
319.71  14.761388
318.71  14.224798
317.71  13.628202
316.71  13.083897
315.71  13.687314
314.71  15.213361
313.71  15.241136
312.71  14.715375
311.71  15.182343
310.71  14.334128
309.71  14.779816
308.71  15.757104
307.71  16.932144
306.71  15.951341
305.71  14.736318
304.71  15.930613
303.71  14.752565
302.71  15.274336
301.71  15.004739
300.71  14.972351
299.71  14.236679
298.71  14.830223
297.71  14.100115
296.71  14.515948
295.71  13.662495
294.71  14.187041
293.71  11.884198
292.71  12.780357
291.71  13.286668
290.71  15.606492
289.71  15.845974
288.71  17.0176
287.71  29.01319
286.71  43.581311
285.71  31.0406
284.71  14.209525
283.71  12.687303
282.71  12.86658
281.71  13.716704
280.71  11.512968
279.71  10.477916
278.71  12.419725
277.71  12.539702
276.71  13.852156
275.71  13.167919
274.71  11.536387
273.71  12.504256
272.71  14.285943
271.71  14.008451
270.71  13.566367
269.71  12.412859
268.71  10.960859
267.71  12.653923
266.71  11.601793
265.71  12.038773
264.71  10.649319
263.71  10.771478
262.71  11.33726
261.71  11.197898
260.71  13.256701
259.71  11.793673
258.71  10.591068
257.71  11.327452
256.71  11.104424
255.71  11.739817
254.71  12.345416
253.71  10.43509
252.71  9.9526967
251.71  11.217938
250.71  11.356184
249.71  12.010984
248.71  10.307248
247.71  9.7256084
246.71  9.8717761
245.71  11.249693
244.71  11.59955
243.71  13.299144
242.71  11.528135
241.71  11.267212
240.71  10.741988
239.71  10.325887
238.71  9.2282628
237.71  10.160512
236.71  9.072246
235.71  8.6526327
234.71  9.0370332
233.71  10.06121
232.71  10.198261
231.71  11.696249
230.71  11.681168
229.71  10.444352
228.71  8.5901144
227.71  9.2197405
226.71  7.6834493
225.71  7.1974181
224.71  7.0887348
223.71  6.9814361
222.71  6.6309561
221.71  6.7272401
220.71  6.729383
219.71  6.9370738
218.71  5.9488645
217.71  6.0814886
216.71  6.1676621
215.71  6.4898317
214.71  5.6389821
213.71  6.1093148
212.71  6.7682864
211.71  6.3544278
210.71  6.4409788
209.71  7.2132295
208.71  5.8601976
207.71  5.3978383
206.71  6.4161112
205.71  6.5545044
204.71  6.9816775
203.71  6.769712
202.71  6.9041382
201.71  7.9979916
200.71  8.4581411
199.71  7.3212312
198.71  6.1094654
197.71  5.4406296
196.71  6.2306886
195.71  5.9135291
194.71  6.7315244
193.71  5.7769231
192.71  5.9753976
191.71  5.23948
190.71  5.8099062
189.71  6.0645484
188.71  5.8323825
187.71  5.7937124
186.71  6.1290919
185.71  6.1732436
184.71  6.8702691
183.71  6.4755444
182.71  6.3122618
181.71  6.9834261
180.71  7.7127925
179.71  7.1012941
178.71  6.6550357
177.71  6.1548393
176.71  5.923192
175.71  5.7800171
174.71  6.4401212
173.71  6.7150194
172.71  6.4162558
171.71  6.9016644
170.71  7.453538
169.71  7.0391822
168.71  6.0227229
167.71  5.797485
166.71  6.1366134
165.71  5.2337564
164.71  5.5827565
163.71  5.7737374
162.71  5.2323585
161.71  6.1526779
160.71  6.2173694
159.71  6.9694229
158.71  6.8107025
157.71  7.4595639
156.71  7.3807588
155.71  6.4940129
154.71  6.1177355
153.71  6.0426257
152.71  6.1162394
151.71  5.9116229
150.71  6.3512715
149.71  6.4690964
148.71  6.1376341
147.71  5.3551511
146.71  6.3877708
145.71  6.6430886
144.71  6.2104366
143.71  6.6844914
142.71  6.7954687
141.71  6.9085893
140.71  6.4994207
139.71  6.1562029
138.71  6.5126932
137.71  7.5605681
136.71  6.2615645
135.71  7.0971347
134.71  6.3119381
133.71  5.3023804
132.71  5.9510649
131.71  5.9112437
130.71  6.1389896
129.71  5.3429131
128.71  6.0872943
127.71  5.7127128
126.71  7.155059
125.71  5.8649504
124.71  5.6903632
123.71  6.1436515
122.71  6.1751654
121.71  5.6439012
120.71  5.3349912
119.71  5.5078045
118.71  6.0645813
117.71  5.762846
116.71  6.1723721
115.71  6.4723877
114.71  6.2495948
113.71  5.6292911
112.71  5.4574025
111.71  6.3877617
110.71  7.0137808
109.71  6.5180593
108.71  5.9596302
107.71  5.7466908
106.71  5.3889728
105.71  5.4399169
104.71  6.0352526
103.71  6.6705174
102.71  6.7072202
101.71  5.3281179
100.71  5.2150455
99.71  5.6722317
98.71  5.844432
97.71  6.1263358
96.71  6.6048105
95.71  7.0051726
94.71  7.1879301
93.71  7.8920468
92.71  7.2725458
91.71  8.2311988
90.71  6.4027409
89.71  5.1866031
88.71  5.1510426
87.71  4.8939951
86.71  5.1854329
85.71  6.0228193
84.71  5.7962377
83.71  5.8564719
82.71  5.8480536
81.71  5.194994
80.71  4.6879052
79.71  5.4258104
78.71  5.2802286
77.71  5.1323329
76.71  5.6544612
75.71  5.6206151
74.71  6.5657259
73.71  5.991766
72.71  6.2484743
71.71  6.2518297
70.71  5.5621143
69.71  4.9823484
68.71  5.8280872
67.71  5.6162987
66.71  5.1879414
65.71  5.2679616
64.71  4.3609297
63.71  4.7491211
62.71  4.8386857
61.71  4.5565923
60.71  4.59828
59.71  5.3203509
58.71  5.3444353
57.71  4.5556927
56.71  5.2994507
55.71  5.2032675
54.71  5.6371846
53.71  4.7713034
52.71  4.5513596
51.71  4.7722608
50.71  4.5007055
49.71  4.7244894
48.71  5.0283149
47.71  5.5236284
46.71  4.9607518
45.71  5.0308396
44.71  4.1252154
43.71  3.7965195
42.71  4.1997409
41.71  4.1805611
40.71  3.5680034
39.71  3.7978657
38.71  4.0277862
37.71  3.8181415
36.71  2.4969516
35.71  1.9703495
34.71  2.1243584
33.71  1.724754
32.71  2.0796438
31.71  1.8698962
30.71  3.1759556
29.71  9.250775
28.71  8.3556205
27.71  14.110938
26.71  8.0870532
25.71  2.0122305
24.71  2.1221862
23.71  2.1002183
22.71  2.0401398
21.71  1.8140025
20.71  1.3847958
19.71  1.1240497
18.71  1.0696859
17.71  1.0808883
16.71  1.166421
15.71  1.1532142
14.71  0.75885177
13.71  0.70926999
12.71  0.60035439
11.71  0.56315981
10.71  0.64285675
9.71  0.95934324
8.71  1.2507628
7.71  0.88824128
6.71  1.326582
5.71  0.84748781
4.71  0.5052195
3.71  0.47215688
2.71  0.44443917
1.71  0.47926679
0.71  0.42230127
-0.29  0.41240791
-1.29  0.4105161
-2.29  0.40351248
-3.29  0.67299789

# Region:            O1s
# Spectrum ID:       3
# Acquisition Date:  06/23/22 12:32:18 UTC
# Analysis Method:   XPS
# Analyzer:          Analyzer
# Analyzer Lens:     LargeArea:1.5kV
# Analyzer Slit:     4:3x20\B:open
# Scan Mode:         FixedAnalyzerTransmission
# Curves/Scan:       1
# Values/Curve:      201
# Dwell Time:        0.5
# Excitation Energy: 1486.71
# Binding Energy:    541.71
# Pass Energy:       30
# Bias Voltage:      -1
# Detector Voltage:  1800
# Eff. Workfunction: 4.498
# Source:            XR 50 MF (UXC1000)
# Comment:
# OrdinateRange:     [-18.000000, 18.000000]
#
# Cycle: 0
# Number of Scans: 1
#
# Cycle: 0, Curve: 0
# Acquisition Date: 06/23/22 12:32:18 UTC
#
# ColumnLabels: energy counts/s
#
541.71  9.8634856
541.51  9.8415748
541.31  9.7401934
541.11  10.228404
540.91  9.9648505
540.71  9.0647625
540.51  9.560083
540.31  10.655165
540.11  10.281253
539.91  10.754939
539.71  9.7728212
539.51  9.4744777
539.31  9.7193816
539.11  9.7161451
538.91  9.8770812
538.71  9.8245124
538.51  10.713087
538.31  10.572648
538.11  10.528627
537.91  9.7269354
537.71  9.7132871
537.51  10.631663
537.31  10.535919
537.11  9.8291676
536.91  9.9592598
536.71  10.388975
536.51  10.109622
536.31  10.117546
536.11  10.95021
535.91  11.113898
535.71  12.957863
535.51  13.35268
535.31  13.604505
535.11  14.604488
534.91  16.554203
534.71  17.111429
534.51  19.385478
534.31  20.591224
534.11  21.634522
533.91  22.488711
533.71  22.415921
533.51  22.025965
533.31  20.493534
533.11  20.003498
532.91  19.529011
532.71  20.160645
532.51  18.946506
532.31  19.817209
532.11  20.807557
531.91  21.806024
531.71  22.019881
531.51  22.755071
531.31  20.220107
531.11  17.437684
530.91  14.648517
530.71  13.460939
530.51  12.176923
530.31  10.352347
530.11  10.285642
529.91  10.231326
529.71  9.8052089
529.51  9.91178
529.31  9.91775
529.11  9.9830884
528.91  9.2239629
528.71  9.0205845
528.51  9.7244646
