# Created by:        SpecsLab Prodigy, Version 4.74.2-r95700
#
# XY-Serializer Export Settings:
#   Comment Prefix:           #
#   Output Meta Data:         yes
#   Energy Axis:              Binding Energy
#   Count Rate:               Counts per Second
#   Separate Scan Data:       no
#   Separate Channel Data:    no
#   External Channel Data:    yes
#   Transmission Function:    no
#   Error Bar:                no
#   Operation Results:        yes
#   Time Zone Format:         UTC
#
# Group:             UHV Evap
#
# Region:            overview
# Spectrum ID:       27
# Acquisition Date:  06/24/22 12:25:02 UTC
# Analysis Method:   XPS
# Analyzer:          Analyzer
# Analyzer Lens:     MediumArea:1.5kV
# Analyzer Slit:     4:3x20\B:open
# Scan Mode:         FixedAnalyzerTransmission
# Curves/Scan:       1
# Values/Curve:      941
# Dwell Time:        0.1
# Excitation Energy: 1486.71
# Binding Energy:    936.71
# Pass Energy:       50
# Bias Voltage:      -1
# Detector Voltage:  1800
# Eff. Workfunction: 4.498
# Source:            XR 50 MF (UXC1000)
# Comment:
# OrdinateRange:     [-7.000000, 7.000000]
#
# Cycle: 0
# Number of Scans: 1
#
# Cycle: 0, Curve: 0
# Acquisition Date: 06/24/22 12:25:02 UTC
#
# ColumnLabels: energy counts/s
#
936.71  5.2301899
935.71  5.9458377
934.71  6.6581536
933.71  5.9123344
932.71  5.6084549
931.71  5.7101863
930.71  6.4960675
929.71  5.7768651
928.71  6.2472419
927.71  7.3412153
926.71  6.4695363
925.71  6.7420844
924.71  5.4417102
923.71  7.2839932
922.71  6.3060721
921.71  5.3565857
920.71  5.8502763
919.71  6.488
918.71  6.1229529
917.71  5.9704725
916.71  5.5959217
915.71  5.9230225
914.71  5.9585235
913.71  6.0245112
912.71  5.8075855
911.71  5.8727327
910.71  6.4164778
909.71  6.8887913
908.71  6.4274048
907.71  7.8136975
906.71  8.2839005
905.71  6.6207698
904.71  6.1719818
903.71  6.5915544
902.71  6.2731953
901.71  6.3629544
900.71  6.0557808
899.71  6.2463239
898.71  6.1910786
897.71  7.0697345
896.71  6.2479835
895.71  6.1689075
894.71  6.5455328
893.71  6.3887352
892.71  6.7428987
891.71  6.0689239
890.71  6.9483329
889.71  6.9191683
888.71  7.2214546
887.71  7.0588
886.71  7.3874781
885.71  7.3915273
884.71  7.5580597
883.71  6.5471864
882.71  6.916184
881.71  6.3650957
880.71  6.9280445
879.71  7.4177841
878.71  7.4606099
877.71  7.1625112
876.71  6.4418284
875.71  6.7573113
874.71  6.2782706
873.71  8.0761809
872.71  7.4903945
871.71  7.9732872
870.71  7.8319473
869.71  7.7146864
868.71  6.395962
867.71  6.1779502
866.71  7.4547046
865.71  6.8997441
864.71  7.025201
863.71  6.9789939
862.71  7.6630285
861.71  7.180435
860.71  6.9627406
859.71  7.0479028
858.71  8.1012871
857.71  7.3715612
856.71  8.0931138
855.71  7.0377887
854.71  8.9074817
853.71  6.3254304
852.71  7.2400264
851.71  7.4046063
850.71  7.5533668
849.71  7.3806571
848.71  8.2300698
847.71  8.2189339
846.71  7.1515474
845.71  7.503387
844.71  8.8363803
843.71  8.5933084
842.71  7.88832
841.71  7.3635091
840.71  7.3971512
839.71  8.205818
838.71  8.8872435
837.71  7.1336686
836.71  6.9332532
835.71  7.3426758
834.71  7.4655775
833.71  7.2913424
832.71  7.457488
831.71  7.9310952
830.71  8.141571
829.71  9.188267
828.71  8.2632126
827.71  7.5273548
826.71  8.0366061
825.71  7.7110744
824.71  7.3897695
823.71  7.5768889
822.71  7.7039647
821.71  7.7427128
820.71  8.211278
819.71  7.9568993
818.71  8.4726559
817.71  7.5062549
816.71  7.73031
815.71  8.0765024
814.71  8.6638631
813.71  8.3880527
812.71  8.3962133
811.71  7.4802117
810.71  8.9293634
809.71  9.6989583
808.71  7.6453359
807.71  8.4702373
806.71  9.1175118
805.71  8.0592894
804.71  8.2376809
803.71  6.9899675
802.71  7.8663101
801.71  9.0156249
800.71  9.5638031
799.71  8.5852885
798.71  7.690844
797.71  8.9715162
796.71  8.5248149
795.71  7.9341982
794.71  9.4054152
793.71  8.8948242
792.71  8.4291497
791.71  9.6830251
790.71  9.0841968
789.71  8.1284907
788.71  7.4251194
787.71  7.6318276
786.71  8.8373611
785.71  9.5863719
784.71  9.5072101
783.71  10.066273
782.71  9.2685796
781.71  9.3578247
780.71  8.6221127
779.71  9.5337304
778.71  8.2004547
777.71  8.4363903
776.71  9.1067701
775.71  8.0507884
774.71  8.2406117
773.71  7.0003247
772.71  8.0111709
771.71  8.9772255
770.71  8.9557546
769.71  9.9479492
768.71  8.2954469
767.71  8.0932795
766.71  8.9338354
765.71  9.7555749
764.71  8.8410685
763.71  9.6073285
762.71  10.180014
761.71  10.49724
760.71  9.1909033
759.71  9.4169395
758.71  8.9827682
757.71  7.9449721
756.71  8.863926
755.71  8.6678221
754.71  8.5623034
753.71  7.742373
752.71  8.6697173
751.71  9.8384316
750.71  9.5655487
749.71  10.138617
748.71  9.4567145
747.71  10.011402
746.71  10.593616
745.71  9.0226635
744.71  10.017082
743.71  11.039325
742.71  9.9317201
741.71  9.8549543
740.71  9.7991901
739.71  10.230467
738.71  10.363384
737.71  10.174282
736.71  9.6207923
735.71  9.71133
734.71  10.206106
733.71  10.612424
732.71  9.4963548
731.71  8.9787918
730.71  9.5733406
729.71  10.683077
728.71  9.5277562
727.71  10.297564
726.71  10.264151
725.71  9.4411079
724.71  9.4441389
723.71  10.607583
722.71  9.5892789
721.71  9.8164272
720.71  10.052432
719.71  9.7779976
718.71  11.122479
717.71  10.714482
716.71  10.007602
715.71  9.7922749
714.71  9.7856057
713.71  10.355965
712.71  10.233797
711.71  9.8961595
710.71  9.1867546
709.71  10.026561
708.71  10.032694
707.71  9.5542341
706.71  9.2108258
705.71  10.489103
704.71  9.3496844
703.71  11.103235
702.71  10.284495
701.71  9.3206232
700.71  10.622639
699.71  10.797333
698.71  11.152845
697.71  9.9768181
696.71  10.042935
695.71  10.259609
694.71  11.032864
693.71  10.442663
692.71  9.7306778
691.71  10.229403
690.71  11.219894
689.71  12.955402
688.71  12.094663
687.71  10.883508
686.71  11.948998
685.71  11.17749
684.71  11.864738
683.71  10.011467
682.71  9.4356563
681.71  10.384026
680.71  10.287734
679.71  10.894335
678.71  12.261699
677.71  10.626634
676.71  10.836876
675.71  10.614651
674.71  10.713651
673.71  10.621485
672.71  10.896026
671.71  10.448224
670.71  11.773945
669.71  13.423275
668.71  12.606693
667.71  12.321479
666.71  10.835556
665.71  12.001127
664.71  12.161521
663.71  11.141729
662.71  11.519175
661.71  11.794764
660.71  11.328395
659.71  9.1836819
658.71  10.224411
657.71  11.942632
656.71  10.559743
655.71  10.937936
654.71  10.189269
653.71  11.011653
652.71  11.113575
651.71  11.523267
650.71  10.695741
649.71  12.569991
648.71  12.014557
647.71  12.577174
646.71  12.782608
645.71  12.289054
644.71  12.377901
643.71  11.538568
642.71  11.328336
641.71  11.827942
640.71  10.617246
639.71  12.153136
638.71  11.607019
637.71  11.345446
636.71  11.26658
635.71  11.007953
634.71  10.818299
633.71  12.176993
632.71  11.264075
631.71  11.697322
630.71  11.381272
629.71  12.153071
628.71  12.45295
627.71  13.658302
626.71  12.454191
625.71  11.490082
624.71  11.173392
623.71  10.9502
622.71  12.183852
621.71  10.829972
620.71  11.401811
619.71  12.311418
618.71  12.624431
617.71  13.495768
616.71  11.825007
615.71  12.993754
614.71  11.78171
613.71  11.87947
612.71  11.651772
611.71  13.375095
610.71  12.571185
609.71  12.054292
608.71  13.775247
607.71  12.081985
606.71  13.224724
605.71  12.45127
604.71  13.263846
603.71  14.08324
602.71  12.982198
601.71  13.045313
600.71  12.015788
599.71  13.66936
598.71  13.760777
597.71  12.939793
596.71  14.377054
595.71  13.317008
594.71  14.147084
593.71  11.75907
592.71  12.393723
591.71  14.971484
590.71  13.38874
589.71  11.391221
588.71  12.498458
587.71  14.606472
586.71  14.636472
585.71  13.47283
584.71  14.188514
583.71  13.03856
582.71  12.519031
581.71  13.326356
580.71  13.460116
579.71  12.337855
578.71  13.358473
577.71  15.133933
576.71  14.331499
575.71  14.897748
574.71  12.571322
573.71  13.481652
572.71  14.369792
571.71  13.358268
570.71  12.295569
569.71  12.640388
568.71  14.131937
567.71  14.914643
566.71  15.846153
565.71  15.793684
564.71  17.613813
563.71  14.950148
562.71  12.959359
561.71  13.275758
560.71  13.297334
559.71  13.522377
558.71  14.662701
557.71  13.866601
556.71  13.492518
555.71  14.403183
554.71  13.363107
553.71  14.408706
552.71  14.025298
551.71  13.735631
550.71  12.641008
549.71  15.828236
548.71  14.488678
547.71  13.336432
546.71  13.576573
545.71  12.381906
544.71  13.540353
543.71  14.006118
542.71  14.858984
541.71  13.71732
540.71  15.605564
539.71  14.636857
538.71  13.394416
537.71  13.917464
536.71  14.170036
535.71  14.489192
534.71  15.691274
533.71  18.373713
532.71  21.48934
531.71  24.09632
530.71  20.720268
529.71  13.925616
528.71  13.77953
527.71  14.546136
526.71  14.573388
525.71  13.277178
524.71  12.219607
523.71  12.66201
522.71  10.67597
521.71  12.742175
520.71  12.658526
519.71  12.879516
518.71  13.827153
517.71  13.448204
516.71  13.058807
515.71  11.90931
514.71  12.612572
513.71  14.972282
512.71  14.525661
511.71  13.173122
510.71  13.748102
509.71  12.935779
508.71  12.759536
507.71  12.110081
506.71  13.455271
505.71  12.996476
504.71  12.532236
503.71  13.441319
502.71  12.840126
501.71  14.168766
500.71  13.119909
499.71  14.550281
498.71  13.682726
497.71  14.40781
496.71  14.210317
495.71  15.190397
494.71  14.291206
493.71  13.231908
492.71  13.041249
491.71  15.138473
490.71  14.895867
489.71  13.769515
488.71  15.855025
487.71  15.395978
486.71  14.203167
485.71  13.56418
484.71  13.802961
483.71  15.070396
482.71  15.792495
481.71  13.246078
480.71  14.498327
479.71  16.536854
478.71  17.616024
477.71  15.291938
476.71  14.981514
475.71  15.243568
474.71  15.135217
473.71  17.281744
472.71  16.552424
471.71  15.366382
470.71  14.803471
469.71  13.668475
468.71  16.259743
467.71  15.897568
466.71  15.972246
465.71  17.129884
464.71  19.113709
463.71  18.994633
462.71  15.172967
461.71  15.969753
460.71  15.875678
459.71  15.619146
458.71  15.387709
457.71  15.54448
456.71  14.577814
455.71  15.127455
454.71  15.552788
453.71  14.747463
452.71  14.110346
451.71  14.418397
450.71  15.367117
449.71  16.291666
448.71  14.929747
447.71  15.064332
446.71  14.525906
445.71  14.883927
444.71  13.061857
443.71  13.73317
442.71  14.29538
441.71  14.943491
440.71  14.254394
439.71  14.529361
438.71  15.246743
437.71  15.697751
436.71  14.200359
435.71  15.041168
434.71  16.152931
433.71  14.58262
432.71  14.084301
431.71  15.560015
430.71  16.272598
429.71  14.672022
428.71  16.402349
427.71  15.786882
426.71  16.15863
425.71  17.312067
424.71  16.882872
423.71  14.814969
422.71  16.864412
421.71  16.418791
420.71  15.892251
419.71  16.161174
418.71  15.18905
417.71  16.037024
416.71  17.661089
415.71  18.274113
414.71  14.809731
413.71  14.571062
412.71  14.610275
411.71  16.199934
410.71  15.47801
409.71  16.19187
408.71  15.948537
407.71  15.625643
406.71  16.446024
405.71  17.015734
404.71  19.089037
403.71  20.015001
402.71  21.108864
401.71  21.363759
400.71  20.439418
399.71  16.966165
398.71  14.633979
397.71  14.806314
396.71  14.149239
395.71  13.157574
394.71  14.050697
393.71  13.626134
392.71  12.964219
391.71  14.478936
390.71  13.714143
389.71  12.197283
388.71  11.808641
387.71  12.784745
386.71  12.6006
385.71  12.005914
384.71  12.230656
383.71  11.984249
382.71  12.450315
381.71  14.326412
380.71  12.178302
379.71  12.702323
378.71  12.238924
377.71  13.46549
376.71  12.428272
375.71  11.812524
374.71  11.633581
373.71  12.283959
372.71  13.452298
371.71  13.588702
370.71  12.659172
369.71  12.507831
368.71  14.180762
367.71  13.817725
366.71  14.138313
365.71  13.62475
364.71  11.54962
363.71  14.475808
362.71  13.270259
361.71  11.51259
360.71  13.025893
359.71  14.604711
358.71  13.582925
357.71  14.474023
356.71  13.754195
355.71  13.486941
354.71  14.75642
353.71  14.843493
352.71  14.525425
351.71  15.218398
350.71  14.470049
349.71  12.841346
348.71  15.09763
347.71  14.977873
346.71  13.147794
345.71  13.33388
344.71  13.984276
343.71  14.827862
342.71  14.020689
341.71  13.052834
340.71  13.643482
339.71  13.765649
338.71  14.003126
337.71  15.662704
336.71  15.18658
335.71  15.429671
334.71  15.062996
333.71  13.813634
332.71  15.222409
331.71  15.469621
330.71  14.043399
329.71  13.972697
328.71  13.419737
327.71  15.673394
326.71  15.567062
325.71  16.043694
324.71  13.894666
323.71  15.445771
322.71  16.510433
321.71  15.922014
320.71  13.953169
319.71  15.462034
318.71  15.441876
317.71  15.507864
316.71  15.68737
315.71  16.000182
314.71  16.353205
313.71  15.243336
312.71  15.76851
311.71  14.180653
310.71  15.219316
309.71  16.733054
308.71  17.47367
307.71  15.689012
306.71  15.81669
305.71  14.536292
304.71  15.03211
303.71  15.608397
302.71  16.944341
301.71  16.713377
300.71  15.073579
299.71  16.214205
298.71  17.134745
297.71  16.433478
296.71  18.439862
295.71  16.135276
294.71  18.742037
293.71  17.495802
292.71  17.80754
291.71  16.503266
290.71  17.393861
289.71  18.32409
288.71  18.286034
287.71  18.436617
286.71  23.049591
285.71  25.339871
284.71  25.17014
283.71  20.020052
282.71  18.666745
281.71  15.984519
280.71  16.209826
279.71  15.658651
278.71  15.48432
277.71  15.218999
276.71  16.748135
275.71  16.027501
274.71  16.223996
273.71  17.847783
272.71  17.088589
271.71  17.763352
270.71  17.639926
269.71  16.492381
268.71  18.048503
267.71  16.8107
266.71  16.752628
265.71  19.440408
264.71  18.664125
263.71  18.858631
262.71  17.38958
261.71  18.236723
260.71  19.177348
259.71  18.962648
258.71  18.062474
257.71  18.76384
256.71  19.281145
255.71  18.722923
254.71  18.262265
253.71  18.871025
252.71  18.865943
251.71  17.743549
250.71  18.176124
249.71  19.923209
248.71  18.622758
247.71  19.758799
246.71  16.998848
245.71  18.045364
244.71  20.415003
243.71  21.254813
242.71  22.985178
241.71  24.016198
240.71  24.17183
239.71  24.680128
238.71  26.685999
237.71  22.78692
236.71  19.165579
235.71  16.936176
234.71  15.314968
233.71  15.713894
232.71  17.376901
231.71  18.686503
230.71  21.091463
229.71  24.803292
228.71  26.921889
227.71  28.950976
226.71  27.333247
225.71  20.669478
224.71  14.240228
223.71  10.700814
222.71  9.4697654
221.71  7.391546
220.71  6.0511542
219.71  6.7066503
218.71  5.6366677
217.71  5.3425914
216.71  5.8463742
215.71  5.7357898
214.71  5.8224668
213.71  5.9996104
212.71  5.3416014
211.71  5.6849851
210.71  5.8709695
209.71  5.2028667
208.71  4.8516045
207.71  5.4382087
206.71  6.2575574
205.71  6.7300404
204.71  5.2564627
203.71  5.1516705
202.71  5.7526406
201.71  6.6627449
200.71  6.329204
199.71  6.907302
198.71  6.1292562
197.71  5.3239042
196.71  4.6258338
195.71  5.1033963
194.71  5.1563784
193.71  5.2798494
192.71  5.1752868
191.71  5.7879599
190.71  5.5543836
189.71  6.1782004
188.71  5.4723683
187.71  6.1355097
186.71  5.3602867
185.71  5.718991
184.71  5.352386
183.71  4.8142162
182.71  5.384833
181.71  5.9031381
180.71  5.0294311
179.71  4.9487982
178.71  4.8104538
177.71  5.1200872
176.71  5.4105379
175.71  5.2254033
174.71  5.7550271
173.71  6.5124193
172.71  5.5519661
171.71  5.7089485
170.71  4.9433071
169.71  4.5135277
168.71  6.2082304
167.71  6.5873069
166.71  6.834599
165.71  5.7107578
164.71  6.1076203
163.71  5.706337
162.71  6.3743387
161.71  6.9533281
160.71  6.5078748
159.71  6.5912669
158.71  5.7767122
157.71  6.3720035
156.71  7.2241664
155.71  5.9289522
154.71  6.3950336
153.71  6.4108653
152.71  5.850165
151.71  5.6234051
150.71  6.7523748
149.71  6.6123498
148.71  6.4100263
147.71  6.3881949
146.71  5.7019907
145.71  5.3537191
144.71  6.5990443
143.71  7.7329426
142.71  5.7509526
141.71  6.1674738
140.71  6.0212278
139.71  5.791844
138.71  6.0242634
137.71  6.6685182
136.71  6.3154274
135.71  6.6299444
134.71  6.6979087
133.71  6.4187812
132.71  7.4120007
131.71  6.6327736
130.71  5.7187469
129.71  6.0423826
128.71  6.8703468
127.71  6.3542673
126.71  6.5811208
125.71  7.317561
124.71  7.5960529
123.71  7.4323438
122.71  7.8833064
121.71  6.5087741
120.71  6.9317362
119.71  7.1439828
118.71  7.2406044
117.71  7.356257
116.71  7.1768561
115.71  7.323645
114.71  7.6774226
113.71  7.0141161
112.71  7.0881706
111.71  7.2433907
110.71  7.3256704
109.71  8.1953603
108.71  7.0079796
107.71  6.6726663
106.71  7.108576
105.71  7.4192405
104.71  7.2280735
103.71  6.9016279
102.71  7.4502729
101.71  7.1325895
100.71  7.2536863
99.71  7.1830662
98.71  7.7725521
97.71  7.8626109
96.71  7.6496562
95.71  7.9073274
94.71  7.3643786
93.71  7.7463566
92.71  7.3795001
91.71  7.6831058
90.71  8.5465806
89.71  6.81107
88.71  7.3782573
87.71  8.227461
86.71  7.3580334
85.71  7.6027617
84.71  8.0246429
83.71  7.5007643
82.71  7.1959757
81.71  8.3225586
80.71  9.0110179
79.71  7.7406553
78.71  7.8614726
77.71  9.1970488
76.71  9.7954588
75.71  9.1500372
74.71  7.8286398
73.71  8.6498813
72.71  9.9528702
71.71  9.7927439
70.71  9.1375696
69.71  9.4272321
68.71  9.2076793
67.71  9.1668688
66.71  8.5599202
65.71  8.0256497
64.71  8.3326168
63.71  8.5099197
62.71  8.1296327
61.71  8.4699375
60.71  9.200463
59.71  8.273057
58.71  8.1279003
57.71  7.7921757
56.71  7.5207267
55.71  9.3795382
54.71  8.573239
53.71  7.5587368
52.71  7.938304
51.71  8.9485733
50.71  9.21141
49.71  9.4149332
48.71  9.9901185
47.71  11.197666
46.71  11.223523
45.71  11.195562
44.71  11.142286
43.71  11.517123
42.71  10.420207
41.71  9.2053558
40.71  9.3369539
39.71  8.5847245
38.71  7.8794608
37.71  8.9043048
36.71  8.0142432
35.71  8.9002176
34.71  9.0326672
33.71  8.0399693
32.71  7.4392814
31.71  5.706594
30.71  6.2631459
29.71  7.8083011
28.71  9.7699862
27.71  12.388803
26.71  18.842186
25.71  31.714525
24.71  39.770616
23.71  36.470976
22.71  25.651176
21.71  6.1940125
20.71  1.4263327
19.71  0.97528763
18.71  0.91116263
17.71  1.0699078
16.71  1.0228502
15.71  1.9040271
14.71  1.601752
13.71  0.82592788
12.71  0.84105482
11.71  0.66829237
10.71  0.61964492
9.71  0.68484062
8.71  0.83627323
7.71  1.1460758
6.71  1.354062
5.71  1.6516008
4.71  1.4055856
3.71  1.2025446
2.71  1.6092007
1.71  1.6825264
0.71  0.87589505
-0.29  0.48049572
-1.29  0.43968203
-2.29  0.43061496
-3.29  0.43497344

# Region:            overview (2)
# Spectrum ID:       28
# Acquisition Date:  06/24/22 12:49:46 UTC
# Analysis Method:   XPS
# Analyzer:          Analyzer
# Analyzer Lens:     MediumArea:1.5kV
# Analyzer Slit:     4:3x20\B:open
# Scan Mode:         FixedAnalyzerTransmission
# Curves/Scan:       1
# Values/Curve:      941
# Dwell Time:        0.1
# Excitation Energy: 1486.71
# Binding Energy:    936.71
# Pass Energy:       50
# Bias Voltage:      -1
# Detector Voltage:  1800
# Eff. Workfunction: 4.498
# Source:            XR 50 MF (UXC1000)
# Comment:           x=3.5, y=13 z=546.5 (center), th=40, slit 4, Iris 40, RT=299K
# OrdinateRange:     [-7.000000, 7.000000]
#
# Cycle: 0
# Number of Scans: 1
#
# Cycle: 0, Curve: 0
# Acquisition Date: 06/24/22 12:49:46 UTC
#
# ColumnLabels: energy counts/s
#
936.71  1.6823076
935.71  2.061862
934.71  1.8943303
933.71  1.7763175
932.71  1.4101967
931.71  1.8984578
930.71  2.0630269
929.71  1.3665901
928.71  1.7495276
927.71  1.8562057
926.71  1.4438696
925.71  1.310434
924.71  1.8105811
923.71  1.8723121
922.71  1.6626944
921.71  1.7547166
920.71  1.7209619
919.71  1.6024221
918.71  1.5910441
917.71  1.295567
916.71  1.0610725
915.71  1.2302645
914.71  1.4142495
913.71  0.91431469
912.71  1.2313493
911.71  1.1594727
910.71  1.4541358
909.71  1.4175546
908.71  1.3655397
907.71  1.0886879
906.71  1.0882238
905.71  1.3436352
904.71  1.3948404
903.71  1.5249428
902.71  1.4962508
901.71  1.0325009
900.71  1.5708291
899.71  1.1212084
898.71  0.82795521
897.71  0.97719796
896.71  1.1002973
895.71  1.3161473
894.71  1.7352532
893.71  1.5341188
892.71  1.1905094
891.71  1.3137196
890.71  1.2850057
889.71  1.3800774
888.71  1.1840771
887.71  1.8117794
886.71  1.3067041
885.71  1.5268427
884.71  1.2969405
883.71  1.4809956
882.71  1.5527671
881.71  1.6519737
880.71  1.3738844
879.71  1.1598672
878.71  1.2820068
877.71  1.0201909
876.71  1.0420623
875.71  0.99238208
874.71  0.83944831
873.71  1.1746728
872.71  1.1967085
871.71  1.4785653
870.71  1.4365904
