# Created by:        SpecsLab Prodigy, Version 4.74.2-r95700
#
# XY-Serializer Export Settings:
#   Comment Prefix:           #
#   Output Meta Data:         yes
#   Energy Axis:              Binding Energy
#   Count Rate:               Counts per Second
#   Separate Scan Data:       no
#   Separate Channel Data:    no
#   External Channel Data:    yes
#   Transmission Function:    no
#   Error Bar:                no
#   Operation Results:        yes
#   Time Zone Format:         UTC
#
# Group:             after 0.3A annealing
#
# Region:            overview
# Spectrum ID:       15
# Acquisition Date:  06/23/22 14:25:29 UTC
# Analysis Method:   XPS
# Analyzer:          Analyzer
# Analyzer Lens:     MediumArea:1.5kV
# Analyzer Slit:     4:3x20\B:open
# Scan Mode:         FixedAnalyzerTransmission
# Curves/Scan:       1
# Values/Curve:      941
# Dwell Time:        0.1
# Excitation Energy: 1486.71
# Binding Energy:    936.71
# Pass Energy:       50
# Bias Voltage:      -1
# Detector Voltage:  1800
# Eff. Workfunction: 4.498
# Source:            XR 50 MF (UXC1000)
# Comment:
# OrdinateRange:     [-7.000000, 7.000000]
#
# Cycle: 0
# Number of Scans: 1
#
# Cycle: 0, Curve: 0
# Acquisition Date: 06/23/22 14:25:29 UTC
#
# ColumnLabels: energy counts/s
#
936.71  5.2263342
935.71  6.0244215
934.71  6.7579904
933.71  5.5772583
932.71  5.4614266
931.71  6.8747844
930.71  6.5520539
929.71  5.7894251
928.71  6.8767368
927.71  5.7542859
926.71  7.3536863
925.71  6.1183096
924.71  5.2057322
923.71  5.7882399
922.71  7.6592346
921.71  6.721718
920.71  6.1895779
919.71  5.8997072
918.71  5.5650916
917.71  5.5097249
916.71  6.6823949
915.71  6.1116137
914.71  5.8107289
913.71  6.6532938
912.71  6.9830768
911.71  6.5583917
910.71  5.7644078
909.71  6.6463548
908.71  6.2702013
907.71  6.2271947
906.71  5.9066931
905.71  6.2292226
904.71  7.1507634
903.71  5.8857755
902.71  6.408705
901.71  6.8272934
900.71  6.2386972
899.71  7.0396553
898.71  5.9753496
897.71  6.3649612
896.71  6.8374888
895.71  6.9643709
894.71  6.6952085
893.71  6.5032788
892.71  6.9127174
891.71  7.1948488
890.71  6.3444365
889.71  5.8178003
888.71  5.8984724
887.71  6.8688343
886.71  7.4389414
885.71  7.81725
884.71  7.1877392
883.71  5.7618518
882.71  6.3088839
881.71  5.6821076
880.71  7.0939009
879.71  7.7600161
878.71  6.273614
877.71  6.2416522
876.71  5.6660974
875.71  6.8512273
874.71  5.8147751
873.71  6.1892062
872.71  7.8828714
871.71  6.3196161
870.71  7.3769765
869.71  7.6760454
868.71  5.7046477
867.71  5.711171
866.71  7.1402919
865.71  7.1177025
864.71  6.7563849
863.71  5.9849788
862.71  5.7508031
861.71  6.6824263
860.71  6.224508
859.71  5.764841
858.71  6.7931708
857.71  6.7464447
856.71  6.520505
855.71  6.6888393
854.71  7.1349424
853.71  8.2129772
852.71  7.0821291
851.71  6.2079257
850.71  7.1619602
849.71  8.537552
848.71  6.6777817
847.71  6.7080787
846.71  6.5615515
845.71  7.1015615
844.71  6.4939755
843.71  6.6554643
842.71  7.2645208
841.71  6.4788674
840.71  7.2783741
839.71  6.7182925
838.71  7.2449747
837.71  7.1655302
836.71  6.8060827
835.71  6.6826497
834.71  7.0695946
833.71  7.6265373
832.71  8.392872
831.71  6.9423997
830.71  8.4723847
829.71  8.7188322
828.71  8.2307771
827.71  6.6532479
826.71  6.7924071
825.71  7.2274059
824.71  7.5496722
823.71  6.0448728
822.71  8.4729464
821.71  7.4523326
820.71  7.5452992
819.71  7.4822528
818.71  7.3126966
817.71  6.3473699
816.71  7.794041
815.71  9.118083
814.71  7.8662422
813.71  7.2554022
812.71  7.8587838
811.71  8.7228855
810.71  7.9005388
809.71  7.6213793
808.71  7.4293896
807.71  8.012798
806.71  7.9290832
805.71  8.2455381
804.71  7.4124536
803.71  8.4718905
802.71  8.3465614
801.71  9.04019
800.71  7.5187211
799.71  7.0726155
798.71  8.3784075
797.71  9.418786
796.71  10.508347
795.71  11.26219
794.71  9.1203678
793.71  8.3013878
792.71  7.521608
791.71  7.8499308
790.71  6.9445312
789.71  6.9113254
788.71  7.4700763
787.71  7.0594811
786.71  6.7628004
785.71  6.8468833
784.71  9.2360028
783.71  8.160034
782.71  8.5519297
781.71  11.805956
780.71  11.15064
779.71  7.9412295
778.71  7.4506748
777.71  6.8771193
776.71  5.8785475
775.71  7.3080581
774.71  8.4323561
773.71  8.0363973
772.71  7.904518
771.71  8.2976361
770.71  7.1481282
769.71  8.1580644
768.71  7.5456973
767.71  8.488168
766.71  9.3400915
765.71  8.2865568
764.71  8.2931881
763.71  9.5884991
762.71  8.3459895
761.71  9.7058996
760.71  8.367077
759.71  9.0725454
758.71  7.5434774
757.71  7.8979611
756.71  7.6364515
755.71  8.2117322
754.71  8.6223497
753.71  8.0316315
752.71  8.2579515
751.71  9.7464737
750.71  10.627655
749.71  9.6058265
748.71  8.4677551
747.71  7.8345871
746.71  8.6882648
745.71  9.4837678
744.71  8.3306922
743.71  8.5830799
742.71  7.9392663
741.71  7.6888811
740.71  8.7700435
739.71  8.06229
738.71  8.5985207
737.71  9.6423312
736.71  9.1181539
735.71  10.039519
734.71  9.7048178
733.71  9.621115
732.71  8.9451033
731.71  9.4111526
730.71  8.5357027
729.71  8.8574359
728.71  8.7671631
727.71  9.0947278
726.71  8.2060002
725.71  7.9058727
724.71  8.6673142
723.71  7.7447028
722.71  8.7781421
721.71  9.6475792
720.71  8.9541069
719.71  8.6986334
718.71  8.9440931
717.71  8.4500143
716.71  10.010389
715.71  9.5058521
714.71  9.4341736
713.71  9.2198753
712.71  7.7408968
711.71  8.8111181
710.71  8.5468083
709.71  8.0703627
708.71  9.022643
707.71  8.2360329
706.71  8.8764138
705.71  10.732461
704.71  8.4232001
703.71  7.7504079
702.71  8.7541234
701.71  8.7178124
700.71  10.210615
699.71  10.877049
698.71  9.3430493
697.71  8.9916379
696.71  9.052186
695.71  10.00989
694.71  10.949703
693.71  8.9464813
692.71  9.8462846
691.71  8.7229661
690.71  9.3353948
689.71  9.0797933
688.71  9.2852942
687.71  9.8863308
686.71  10.443785
685.71  9.5977139
684.71  8.2716227
683.71  10.265662
682.71  9.81054
681.71  9.0684195
680.71  9.8186905
679.71  10.137325
678.71  9.701222
677.71  8.2609214
676.71  9.9099789
675.71  9.2420381
674.71  9.4041372
673.71  10.693412
672.71  9.9782671
671.71  9.4062266
670.71  9.0607896
669.71  9.2770099
668.71  9.7948249
667.71  8.8816742
666.71  8.4649369
665.71  8.498829
664.71  8.8231279
663.71  9.6648269
662.71  9.4533144
661.71  10.339632
660.71  9.6985015
659.71  10.701515
658.71  10.052531
657.71  9.1720481
656.71  9.086912
655.71  11.068902
654.71  9.7634925
653.71  10.148598
652.71  10.576438
651.71  10.257098
650.71  10.625088
649.71  10.082727
648.71  10.10367
647.71  9.4016864
646.71  10.938509
645.71  10.154324
644.71  12.091243
643.71  12.037592
642.71  10.303134
641.71  12.18478
640.71  11.168322
639.71  9.9162604
638.71  10.404938
637.71  10.982116
636.71  11.297245
635.71  11.789322
634.71  10.056025
633.71  9.9156342
632.71  10.575563
631.71  9.2538177
630.71  9.2729812
629.71  9.3444951
628.71  9.9764067
627.71  10.109711
626.71  11.475521
625.71  11.065937
624.71  9.4901555
623.71  8.9207754
622.71  11.108054
621.71  11.013856
620.71  12.585425
619.71  12.265134
618.71  10.861338
617.71  11.030981
616.71  11.109025
615.71  11.678564
614.71  10.547335
613.71  9.778533
612.71  11.683469
611.71  11.248205
610.71  10.263172
609.71  10.927613
608.71  10.091538
607.71  10.849226
606.71  10.049124
605.71  11.353707
604.71  11.965537
603.71  11.424366
602.71  11.167285
601.71  10.311983
600.71  12.45356
599.71  12.166929
598.71  10.933013
597.71  11.449174
596.71  11.755812
595.71  12.755327
594.71  11.050751
593.71  10.933991
592.71  11.134732
591.71  11.102599
590.71  10.413663
589.71  11.218851
588.71  11.603995
587.71  11.549144
586.71  10.749021
585.71  9.9204081
584.71  11.788422
583.71  10.717121
582.71  12.480618
581.71  11.478461
580.71  10.183127
579.71  11.600548
578.71  11.614492
577.71  11.0319
576.71  11.296971
575.71  11.541873
574.71  11.576763
573.71  11.11867
572.71  11.346374
571.71  11.04898
570.71  11.706215
569.71  12.556011
568.71  13.3104
567.71  12.356888
566.71  12.210876
565.71  11.455128
564.71  11.608161
563.71  11.094517
562.71  10.832231
561.71  11.789933
560.71  9.8369205
559.71  12.546155
558.71  10.934255
557.71  11.024651
556.71  10.572594
555.71  12.823547
554.71  11.089089
553.71  10.449679
552.71  10.884292
551.71  11.592216
550.71  11.102793
549.71  9.495775
548.71  10.708122
547.71  11.966265
546.71  11.302547
545.71  12.517111
544.71  10.917682
543.71  10.793738
542.71  10.58118
541.71  10.697287
540.71  11.065754
539.71  9.5495343
538.71  8.8828669
537.71  9.5935226
536.71  10.364872
535.71  11.937853
534.71  13.352445
533.71  15.644686
532.71  17.212026
531.71  19.049382
530.71  19.666971
529.71  11.953996
528.71  11.79165
527.71  8.8982204
526.71  9.6549479
525.71  9.3159289
524.71  9.062086
523.71  8.9580621
522.71  9.6228836
521.71  8.4122665
520.71  10.491217
519.71  10.600706
518.71  8.6724349
517.71  8.9770688
516.71  9.1014229
515.71  9.4399203
514.71  10.451234
513.71  8.8953686
512.71  9.0990706
511.71  10.210692
510.71  10.722483
509.71  8.196153
508.71  9.4024441
507.71  9.9826128
506.71  9.3056467
505.71  9.5590856
504.71  9.3002005
503.71  9.2127935
502.71  9.2641681
501.71  10.46232
500.71  10.62
499.71  10.256675
498.71  10.069246
497.71  9.7878645
496.71  9.5888861
495.71  9.048629
494.71  10.098292
493.71  10.411837
492.71  9.4641095
491.71  9.3946217
490.71  8.5432093
489.71  8.4634624
488.71  9.2657762
487.71  9.8428098
486.71  9.507376
485.71  9.6423091
484.71  9.285971
483.71  9.109528
482.71  9.1331287
481.71  10.656575
480.71  9.3493787
479.71  9.1887136
478.71  10.868517
477.71  9.5069784
476.71  9.8993531
475.71  9.0681888
474.71  9.242487
473.71  10.673679
472.71  10.684405
471.71  10.232534
470.71  10.089682
469.71  10.662335
468.71  11.98599
467.71  10.62065
466.71  9.775336
465.71  10.242515
464.71  9.6196483
463.71  8.8604951
462.71  10.186194
461.71  9.5201008
460.71  9.5063302
459.71  10.831385
458.71  10.896194
457.71  10.627066
456.71  10.92989
455.71  10.484537
454.71  11.598017
453.71  9.8923026
452.71  9.1188679
451.71  11.67703
450.71  10.547454
449.71  9.1908053
448.71  10.513652
447.71  10.131305
446.71  9.8180212
445.71  9.5291968
444.71  9.2084269
443.71  9.4593509
442.71  9.4957206
441.71  9.3762277
440.71  10.447315
439.71  9.631317
438.71  9.103497
437.71  8.4531436
436.71  9.4694465
435.71  9.3021217
434.71  9.0271476
433.71  8.969921
432.71  9.3068606
431.71  8.2626501
430.71  8.3717729
429.71  11.392581
428.71  8.9749762
427.71  9.3067198
426.71  8.7001339
425.71  8.5160225
424.71  8.2787807
423.71  10.368813
422.71  9.7532663
421.71  9.2443152
420.71  10.63339
419.71  9.7118368
418.71  9.7055202
417.71  8.2732339
416.71  8.9708926
415.71  9.4032616
414.71  10.129807
413.71  9.7603902
412.71  10.038023
411.71  9.3822856
410.71  9.7286537
409.71  8.8742676
408.71  9.4180254
407.71  10.635477
406.71  10.646141
405.71  11.065104
404.71  11.825506
403.71  10.181912
402.71  9.4970918
401.71  8.497995
400.71  9.0031173
399.71  10.418948
398.71  10.829691
397.71  9.3096015
396.71  9.622012
395.71  9.343013
394.71  9.4626111
393.71  9.077958
392.71  9.1485507
391.71  9.5508937
390.71  8.0901085
389.71  10.084642
388.71  9.70522
387.71  10.07837
386.71  11.442732
385.71  9.0962868
384.71  9.655398
383.71  9.338916
382.71  9.8311464
381.71  8.3935765
380.71  8.7014533
379.71  8.5378695
378.71  9.7143776
377.71  9.9416164
376.71  8.9993194
375.71  9.3110966
374.71  8.9038314
373.71  9.2450736
372.71  9.8213403
371.71  9.7457749
370.71  9.932449
369.71  10.072562
368.71  10.168209
367.71  9.7419395
366.71  9.2515609
365.71  8.8372161
364.71  9.1610015
363.71  9.2196412
362.71  8.8957143
361.71  9.8293373
360.71  9.5670087
359.71  9.3059447
358.71  10.394307
357.71  10.241794
356.71  10.042887
355.71  10.11107
354.71  9.250127
353.71  8.5861672
352.71  10.595513
351.71  9.1062334
350.71  9.4402421
349.71  10.052866
348.71  8.993471
347.71  8.8475866
346.71  8.0762144
345.71  8.4875992
344.71  9.6177368
343.71  10.272031
342.71  10.018253
341.71  9.5281984
340.71  9.439634
339.71  8.5440035
338.71  10.192963
337.71  9.9844518
336.71  10.37989
335.71  9.7325083
334.71  9.1872961
333.71  8.8273122
332.71  9.1461788
331.71  9.5900277
330.71  10.319749
329.71  10.085662
328.71  10.726663
327.71  9.476094
326.71  9.9675343
325.71  10.445396
324.71  9.3257855
323.71  8.7373694
322.71  8.2606133
321.71  9.446651
320.71  9.0137756
319.71  11.177279
318.71  11.705771
317.71  10.608265
316.71  9.82944
315.71  10.49616
314.71  10.892698
313.71  10.772234
312.71  10.377725
311.71  10.534504
310.71  10.447433
309.71  9.5352178
308.71  8.9172918
307.71  9.550365
306.71  10.479635
305.71  11.107418
304.71  10.897423
303.71  9.8374765
302.71  10.462237
301.71  9.7900302
300.71  9.1921941
299.71  8.9904514
298.71  8.4158455
297.71  9.5390807
296.71  9.6401966
295.71  8.7106836
294.71  8.2349322
293.71  9.2394854
292.71  9.3218025
291.71  9.0658724
290.71  9.4183784
289.71  10.568536
288.71  11.165711
287.71  17.488903
286.71  27.419868
285.71  22.388776
284.71  9.9509875
283.71  8.4646609
282.71  8.3671699
281.71  8.0248131
280.71  7.7423257
279.71  8.2829013
278.71  7.7540925
277.71  7.9304891
276.71  8.1012277
275.71  8.7966164
274.71  8.1296053
273.71  8.5762687
272.71  8.4608437
271.71  7.2850244
270.71  8.8652588
269.71  9.3241005
268.71  7.9730809
267.71  7.6977981
266.71  7.9994974
265.71  7.3288793
264.71  8.0030396
263.71  8.4290743
262.71  9.7133568
261.71  7.2791297
260.71  7.5083574
259.71  8.1581608
258.71  8.2037741
257.71  8.4730152
256.71  7.53975
255.71  8.4866868
254.71  10.183665
253.71  7.4038535
252.71  8.5313258
251.71  8.1729982
250.71  8.4877807
249.71  7.6387075
248.71  7.9867954
247.71  8.230913
246.71  7.1180212
245.71  7.5589728
244.71  8.0139074
243.71  8.6083733
242.71  9.2436716
241.71  9.0808187
240.71  8.4751589
239.71  7.3066924
238.71  5.7726601
237.71  6.5745027
236.71  7.0552676
235.71  5.4881397
234.71  6.6112333
233.71  7.1711846
232.71  7.5606936
231.71  9.1562414
230.71  9.917846
229.71  8.1547781
228.71  6.6241238
227.71  6.2683004
226.71  6.084018
225.71  5.1828069
224.71  4.789931
223.71  4.9730888
222.71  5.3530473
221.71  4.8271026
220.71  4.8410184
219.71  5.0962095
218.71  5.5675259
217.71  3.8968724
216.71  4.0817814
215.71  3.9340664
214.71  4.4263012
213.71  4.7362981
212.71  3.99812
211.71  3.4229884
210.71  3.8027354
209.71  4.5416051
208.71  4.0098509
207.71  4.3433733
206.71  4.3114095
205.71  4.1173694
204.71  3.7202966
203.71  4.4924235
202.71  4.6245072
201.71  4.3874124
200.71  3.9669686
199.71  4.2084894
198.71  4.1538043
197.71  4.0976646
196.71  4.0756119
195.71  3.8047932
194.71  3.8764607
193.71  4.1930715
192.71  4.0426441
191.71  3.5820744
190.71  4.2455193
189.71  3.5682229
188.71  4.3423164
187.71  5.0005391
186.71  4.2877296
185.71  3.6280035
184.71  4.0459766
183.71  4.5072558
182.71  4.0210122
181.71  4.0239687
180.71  4.3110495
179.71  3.8016478
178.71  4.0386392
177.71  4.4223882
176.71  3.7431851
175.71  4.3156053
174.71  3.8586885
173.71  3.6658953
172.71  4.0862548
171.71  3.7614713
170.71  4.5333342
169.71  4.4606481
168.71  4.5011477
167.71  3.8246256
166.71  4.2567854
165.71  3.9225389
164.71  3.9024363
163.71  3.8106838
162.71  4.3758399
161.71  4.246626
160.71  4.0112725
159.71  4.0375989
158.71  4.2699585
157.71  3.5621714
156.71  4.2748775
155.71  5.221859
154.71  4.3571974
153.71  4.7128745
152.71  4.2894893
151.71  3.7184248
150.71  3.9577292
149.71  4.0655084
148.71  4.8529789
147.71  3.5498264
146.71  3.6834711
145.71  4.0463595
144.71  4.4243392
143.71  4.2732752
142.71  3.8119162
141.71  4.2846508
140.71  4.314924
139.71  3.6228093
138.71  4.1169474
137.71  4.1076853
136.71  3.831456
135.71  4.1753128
134.71  4.1953612
133.71  4.2126815
132.71  4.0100798
131.71  3.8744983
130.71  4.2456883
129.71  3.6966235
128.71  3.7581379
127.71  3.6869318
126.71  3.5587381
125.71  3.4678705
124.71  3.6283395
123.71  3.1820194
122.71  4.827195
121.71  4.8232625
120.71  3.9176421
119.71  4.7022207
118.71  4.3823059
117.71  3.6130877
116.71  3.8838659
115.71  4.007388
114.71  3.7443446
113.71  3.5852187
112.71  4.0808138
111.71  4.7057246
110.71  3.8831641
109.71  3.5856273
108.71  4.1935492
107.71  4.7058186
106.71  3.8691409
105.71  4.115136
104.71  4.7431758
103.71  4.3974846
102.71  4.7280416
101.71  3.6183865
100.71  3.6318799
99.71  3.857355
98.71  3.8532113
97.71  3.4885665
96.71  3.9111811
95.71  4.2607865
94.71  4.0623529
93.71  3.8692699
92.71  4.8589646
91.71  5.6422372
90.71  5.3700701
89.71  4.6741944
88.71  4.1585735
87.71  3.2181984
86.71  3.9363012
85.71  3.3445107
84.71  4.1366753
83.71  4.4692105
82.71  3.901996
81.71  4.3810243
80.71  4.4832576
79.71  3.6415688
78.71  3.2924199
77.71  3.4645717
76.71  4.0972494
75.71  3.9880575
74.71  4.2172049
73.71  4.5020679
72.71  4.169807
71.71  4.1086926
70.71  3.8034677
69.71  4.7475911
68.71  4.3751526
67.71  3.9421839
66.71  4.1262164
65.71  4.3644361
64.71  4.0127011
63.71  3.7928855
62.71  4.074209
61.71  3.563372
60.71  3.4046559
59.71  3.358721
58.71  4.2033058
57.71  3.1860334
56.71  3.5286903
55.71  4.2507369
54.71  3.7405925
53.71  3.9449983
52.71  4.0696323
51.71  4.7074002
50.71  3.9441072
49.71  3.2231074
48.71  3.2065056
47.71  3.3665454
46.71  4.1889521
45.71  3.8022154
44.71  3.2635907
43.71  2.8872947
42.71  2.9428432
41.71  2.8893357
40.71  2.8077814
39.71  2.9498116
38.71  3.5647064
37.71  3.3533001
36.71  2.230638
35.71  2.0332948
34.71  2.0895592
33.71  1.7835623
32.71  1.8552627
31.71  1.904941
30.71  2.1520879
29.71  6.5284323
28.71  8.2684364
27.71  9.7255592
26.71  9.3357466
25.71  2.2425418
24.71  2.3951122
23.71  2.4339915
22.71  2.0229846
21.71  1.4109577
20.71  0.82548417
19.71  0.60076771
18.71  0.5299138
17.71  0.78345125
16.71  0.95937026
15.71  0.71577023
14.71  0.68982789
13.71  0.5958895
12.71  0.50075534
11.71  0.58393302
10.71  0.6805137
9.71  0.72520786
8.71  0.73786254
7.71  0.85596155
6.71  1.112996
5.71  0.92109304
4.71  0.99032314
3.71  0.8792889
2.71  0.54134833
1.71  0.50136014
0.71  0.61075123
-0.29  0.70931595
-1.29  1.2384794
-2.29  0.41693791
-3.29  0.4128881

# Region:            C1s
# Spectrum ID:       16
# Acquisition Date:  06/23/22 15:16:35 UTC
# Analysis Method:   XPS
# Analyzer:          Analyzer
# Analyzer Lens:     LargeArea:1.5kV
# Analyzer Slit:     4:3x20\B:open
# Scan Mode:         FixedAnalyzerTransmission
# Curves/Scan:       1
# Values/Curve:      81
# Dwell Time:        0.5
# Excitation Energy: 1486.71
# Binding Energy:    299.71
# Pass Energy:       30
# Bias Voltage:      -1
# Detector Voltage:  1800
# Eff. Workfunction: 4.498
# Source:            XR 50 MF (UXC1000)
# Comment:
# OrdinateRange:     [-18.000000, 18.000000]
#
# Cycle: 0
# Number of Scans: 4
#
# Cycle: 0, Curve: 0
# Acquisition Date: 06/23/22 15:16:35 UTC
#
# ColumnLabels: energy counts/s
#
299.71  4.6502551
299.51  4.9889205
299.31  5.0839957
299.11  5.0692363
298.91  5.3904531
298.71  4.8529794
298.51  4.7159693
298.31  4.7912799
298.11  5.0895423
297.91  4.8469592
297.71  4.9327849
297.51  4.8835217
297.31  4.8538421
297.11  4.9515868
296.91  4.8103758
296.71  4.3766411
296.51  4.5978225
296.31  4.7799445
296.11  4.5881765
295.91  4.6992203
295.71  4.6561459
295.51  4.8450917
295.31  4.9180201
295.11  4.5916146
294.91  4.9981699
294.71  4.7597938
294.51  4.7034005
294.31  4.7496573
294.11  4.6387214
293.91  4.9371458
293.71  4.6462218
293.51  4.5840543
293.31  4.7555773
293.11  4.6233329
292.91  4.8650353
292.71  4.5322062
292.51  4.7478759
292.31  4.7055886
292.11  4.7665551
291.91  4.5627311
291.71  4.5667063
291.51  4.9823884
291.31  5.0603845
291.11  4.9182012
290.91  5.1714299
290.71  4.9027627
290.51  5.121022
290.31  5.1329706
290.11  5.230197
289.91  5.0456775
289.71  5.1487964
289.51  5.2305249
289.31  5.5218087
289.11  5.6110903
288.91  5.7429358
288.71  6.1134486
288.51  6.6139814
288.31  7.3667686
288.11  7.7445047
287.91  9.4786948
287.71  10.89329
287.51  12.300424
287.31  13.845511
287.11  15.25722
286.91  16.102842
286.71  16.522639
286.51  16.0516
286.31  14.730094
286.11  11.973107
285.91  9.9096973
285.71  8.1300039
