# Created by:        SpecsLab Prodigy, Version 4.60.2-r85849 
#
# XY-Serializer Export Settings:
#   Comment Prefix:           #
#   Output meta data:         yes
#   Energy Axis:              Binding Energy
#   Count Rate:               Counts per Second
#   Separate Scan Data:       no
#   Separate Channel Data:    no
#   External Channel Data:    yes
#   Transmission Function:    no
#   ErrorBar:                 no
#   Operation Results:        yes
#   Time Zone Format:         UTC
#
# Group:             20210507_Au111_clean
#
# Region:            Ba 3d
# Acquisition Date:  05/23/21 14:58:30 UTC
# Analysis Method:   XPS
# Analyzer:          Phoibos 100 R6
# Analyzer Lens:     LargeArea:1.5kV
# Analyzer Slit:     1:0.2x20\B:open
# Scan Mode:         FixedAnalyzerTransmission
# Curves/Scan:       1
# Values/Curve:      81
# Dwell Time:        0.8
# Excitation Energy: 1486.61
# Binding Energy:    784
# Pass Energy:       30
# Bias Voltage:      90
# Detector Voltage:  2400
# Eff. Workfunction: 4.309
# Source:            X-Ray Dummy
# Comment:           
#
# Cycle: 0
# Number of Scans: 40
#
# Cycle: 0, Curve: 0
# Acquisition Date: 05/23/21 14:58:30 UTC
#
# ColumnLabels: energy counts/s
#
784  5287.8125
783.9  5297.4375
783.8  5309.7188
783.7  5297.875
783.6  5295.5
783.5  5307.9063
783.4  5298.2188
783.3  5303.0938
783.2  5283.875
783.1  5280.5625
783  5291.6563
782.9  5303.8125
782.8  5303.1875
782.7  5296.1563
782.6  5305.875
782.5  5314.2188
782.4  5333.125
782.3  5334.0625
782.2  5343.75
782.1  5338.9688
782  5338.375
781.9  5370.5313
781.8  5354.3125
781.7  5374
781.6  5410.8438
781.5  5374.625
781.4  5392.5
781.3  5418.0938
781.2  5423.3125
781.1  5403.0313
781  5402.875
780.9  5417.2813
780.8  5394.1563
780.7  5399.8125
780.6  5389.5938
780.5  5361.0625
780.4  5387.7188
780.3  5354.125
780.2  5347.6875
780.1  5359.9688
780  5342.5625
779.9  5317.25
779.8  5313.125
779.7  5298.0313
779.6  5292.4063
779.5  5284.25
779.4  5280.125
779.3  5297.3125
779.2  5267.875
779.1  5288.5
779  5277.2188
778.9  5261.125
778.8  5252.9375
778.7  5266.375
778.6  5235.2813
778.5  5263.7188
778.4  5258.4375
778.3  5246.4375
778.2  5260.625
778.1  5245.5313
778  5242.9375
777.9  5245.9375
777.8  5212.875
777.7  5255.6875
777.6  5247.6875
777.5  5235
777.4  5237.5625
777.3  5212.1563
777.2  5232.1563
777.1  5222.9375
777  5246.6563
776.9  5218.2188
776.8  5262.7813
776.7  5233.0625
776.6  5250.8125
776.5  5215.625
776.4  5219.125
776.3  5212.625
776.2  5217.3125
776.1  5217.625
776  5227.0625

# Region:            O 1s
# Acquisition Date:  05/23/21 17:36:24 UTC
# Analysis Method:   XPS
# Analyzer:          Phoibos 100 R6
# Analyzer Lens:     LargeArea:1.5kV
# Analyzer Slit:     1:0.2x20\B:open
# Scan Mode:         FixedAnalyzerTransmission
# Curves/Scan:       1
# Values/Curve:      351
# Dwell Time:        0.8
# Excitation Energy: 1486.61
# Binding Energy:    560
# Pass Energy:       30
# Bias Voltage:      90
# Detector Voltage:  2400
# Eff. Workfunction: 4.309
# Source:            X-Ray Dummy
# Comment:           
#
# Cycle: 0
# Number of Scans: 65
#
# Cycle: 0, Curve: 0
# Acquisition Date: 05/23/21 17:36:24 UTC
#
# ColumnLabels: energy counts/s
#
560  4603.2115
559.9  4608.9808
559.8  4589.7115
559.7  4605.2308
559.6  4596.8846
559.5  4600.9808
559.4  4601.3462
559.3  4595.9615
559.2  4590.7308
559.1  4601.5577
559  4610.5
558.9  4615.4615
558.8  4582.1731
558.7  4605.9808
558.6  4604.2692
558.5  4606.4423
558.4  4592.6346
558.3  4595.6538
558.2  4603.4423
558.1  4602.3654
558  4612.9038
557.9  4583.8462
557.8  4585.8077
557.7  4590.5385
557.6  4594.4808
557.5  4611.1154
557.4  4614.6731
557.3  4607.5769
557.2  4597.7885
557.1  4619.4808
557  4603.3269
556.9  4605.9423
556.8  4609.7115
556.7  4618.25
556.6  4594.1154
556.5  4613.3846
556.4  4616.6346
556.3  4618.5962
556.2  4613.0769
556.1  4614.75
556  4620.4423
555.9  4622.9038
555.8  4625.7308
555.7  4620.7692
555.6  4621.7885
555.5  4625.1538
555.4  4630.3654
555.3  4636.0962
555.2  4624.1731
555.1  4644.25
555  4631.7308
554.9  4629.7692
554.8  4646.8654
554.7  4644.1346
554.6  4655.1731
554.5  4640.8077
554.4  4649.5962
554.3  4639.3654
554.2  4659.7115
554.1  4666.3462
554  4659.8077
553.9  4673.5192
553.8  4675.3077
553.7  4697.6538
553.6  4695.0577
553.5  4697.6923
553.4  4701.4038
553.3  4686.6923
553.2  4704.8846
553.1  4711.75
553  4705.3269
552.9  4735.3846
552.8  4712.9231
552.7  4742.5192
552.6  4745.6923
552.5  4746.75
552.4  4755.0769
552.3  4769.4423
552.2  4787.0192
552.1  4770.3846
552  4798.0192
551.9  4799.6346
551.8  4824.7692
551.7  4825.8077
551.6  4849.1346
551.5  4852.7308
551.4  4843.4231
551.3  4867.4038
551.2  4871.6346
551.1  4903.7308
551  4928.0192
550.9  4942.5962
550.8  4955.0385
550.7  4963.9808
550.6  4992.9423
550.5  4998.3269
550.4  4999.8077
550.3  5013.3654
550.2  5054.2885
550.1  5080.25
550  5069.3846
549.9  5122.1538
549.8  5136.8654
549.7  5157.6731
549.6  5197.3654
549.5  5192.5769
549.4  5235.9615
549.3  5255.0385
549.2  5299.5192
549.1  5310.5962
549  5328
548.9  5374.4808
548.8  5406.8077
548.7  5429.7115
548.6  5463.8462
548.5  5493.9038
548.4  5520.4615
548.3  5558.6346
548.2  5597.4615
548.1  5613.0192
548  5636.0962
547.9  5675.9808
547.8  5705.0769
547.7  5715.0577
547.6  5756.5769
547.5  5799.8654
547.4  5799.2308
547.3  5831.5769
547.2  5820.9038
547.1  5844.1923
547  5860.75
546.9  5880.0769
546.8  5887.0577
546.7  5867.2115
546.6  5875.7115
546.5  5883.1154
546.4  5866.75
546.3  5842.4808
546.2  5825.2115
546.1  5808.2115
546  5786.5385
545.9  5784.9808
545.8  5741.1923
545.7  5708.2692
545.6  5703.3077
545.5  5642.0385
545.4  5602.9231
545.3  5597.0577
545.2  5561.0192
545.1  5504.8077
545  5487.0769
544.9  5432.4808
544.8  5393.25
544.7  5370.0962
544.6  5321.2115
544.5  5280.1731
544.4  5244.4038
544.3  5215.5385
544.2  5170.1731
544.1  5131.3269
544  5114.1538
543.9  5065.8846
543.8  5036.8846
543.7  5007.3654
543.6  4981.8269
543.5  4953.25
543.4  4920.0769
543.3  4905
543.2  4871.8846
543.1  4828.6923
543  4825.8846
542.9  4791.1538
542.8  4767.4423
542.7  4770.6154
542.6  4726.6923
542.5  4713.1731
542.4  4666.5385
542.3  4665.75
542.2  4655.9808
542.1  4648.9231
542  4620.9423
541.9  4612.8462
541.8  4604.9615
541.7  4570.0577
541.6  4571.6154
541.5  4555.3077
541.4  4528.4231
541.3  4523.5385
541.2  4504.0385
541.1  4485.5192
541  4497.1346
540.9  4475.9423
540.8  4480.1731
540.7  4450.2308
540.6  4451.3462
540.5  4437.0192
540.4  4411.3654
540.3  4423.25
540.2  4425.3269
540.1  4407.9038
540  4385.1923
539.9  4398.9423
539.8  4386.5769
539.7  4375.6731
539.6  4373.0385
539.5  4365.2885
539.4  4369.3462
539.3  4371.9808
539.2  4354.8269
539.1  4353.0385
539  4361.6154
538.9  4338.0577
538.8  4336.1538
538.7  4338.7692
538.6  4337.25
538.5  4330.7115
538.4  4338.5192
538.3  4313.4423
538.2  4337.2115
538.1  4331.0962
538  4322.4423
537.9  4315.9038
537.8  4318.6346
537.7  4319.3654
537.6  4330.3269
537.5  4315.8077
537.4  4306.3462
537.3  4316.5962
537.2  4311.5192
537.1  4298.8077
537  4310.5
536.9  4302.0385
536.8  4311.2692
536.7  4286.0192
536.6  4321.3654
536.5  4313.5577
536.4  4292.1346
536.3  4299.8077
536.2  4298.4423
536.1  4305.3462
536  4283.5962
535.9  4289.6154
535.8  4294.5577
535.7  4288.3077
535.6  4306.8269
535.5  4305.5385
535.4  4313.7885
535.3  4302.1731
535.2  4305.8269
535.1  4318.3462
535  4319.75
534.9  4338.8077
534.8  4344.7115
534.7  4361.6154
534.6  4373.4038
534.5  4376.0192
534.4  4410.0962
534.3  4417.1731
534.2  4439.8846
534.1  4451.5192
534  4468.7308
533.9  4463.5385
533.8  4484.4808
533.7  4482.1923
533.6  4476.6346
533.5  4504.9615
533.4  4497.5385
533.3  4499.1346
533.2  4484.6538
533.1  4468.6538
533  4455.4038
532.9  4430.25
532.8  4419.8846
532.7  4392.9231
532.6  4366.0192
532.5  4356.9808
532.4  4326.5769
532.3  4326.1923
532.2  4306.5385
532.1  4279.6923
532  4276.1154
531.9  4283.5192
531.8  4242.6154
531.7  4248.2885
531.6  4230
531.5  4234.9615
531.4  4216.7692
531.3  4218.3269
531.2  4211.9423
531.1  4211.5577
531  4192.7885
530.9  4196.5
530.8  4185.9038
530.7  4145.3269
530.6  4153.6346
530.5  4143.4808
530.4  4126.8077
530.3  4122.1346
530.2  4097.9615
530.1  4110.7692
530  4085.2115
529.9  4067.3269
529.8  4071.1731
529.7  4076.5
529.6  4051.25
529.5  4043.5192
529.4  4036.1346
529.3  4046.7308
529.2  4040.7308
529.1  4034.5577
529  4031.25
528.9  4030.9423
528.8  4031.3269
528.7  4032.4231
528.6  4022.6731
528.5  4033.2692
528.4  4029.5
528.3  4013.1923
528.2  4005.5769
528.1  4029.8846
528  4015.5769
527.9  4028.5385
527.8  4024.2885
527.7  4009.1154
527.6  4013.5385
527.5  4005.9231
527.4  4003.4038
527.3  4018.7692
527.2  4018.1154
527.1  4011.4038
527  4006.0192
526.9  3988.1923
526.8  4007.9423
526.7  3977.7885
526.6  3988.9038
526.5  3988.6538
526.4  3999.25
526.3  4002.25
526.2  3984.2308
526.1  4005.1154
526  4002.2115
525.9  3995.5577
525.8  4005.8846
525.7  3995.3654
525.6  3982.7115
525.5  3996.1346
525.4  3995.0769
525.3  4003.0577
525.2  3999.6731
525.1  3995.2885
525  3983.6923

# Region:            N 1s
# Acquisition Date:  05/23/21 17:58:20 UTC
# Analysis Method:   XPS
# Analyzer:          Phoibos 100 R6
# Analyzer Lens:     LargeArea:1.5kV
# Analyzer Slit:     1:0.2x20\B:open
# Scan Mode:         FixedAnalyzerTransmission
# Curves/Scan:       1
# Values/Curve:      101
# Dwell Time:        0.8
# Excitation Energy: 1486.61
# Binding Energy:    405
# Pass Energy:       30
# Bias Voltage:      90
# Detector Voltage:  2400
# Eff. Workfunction: 4.309
# Source:            X-Ray Dummy
# Comment:           
#
# Cycle: 0
# Number of Scans: 80
#
# Cycle: 0, Curve: 0
# Acquisition Date: 05/23/21 17:58:20 UTC
#
# ColumnLabels: energy counts/s
#
405  4344.5313
404.9  4348.1563
404.8  4359.375
404.7  4355.6094
404.6  4348.2813
404.5  4361.5156
404.4  4361.2188
404.3  4355.7344
404.2  4353.7969
404.1  4350.6406
404  4352.3125
403.9  4380.7344
403.8  4371.2813
403.7  4359.5
403.6  4380.6719
403.5  4366.1406
403.4  4372.25
403.3  4377.7969
403.2  4388.7344
403.1  4376.3125
403  4377.9063
402.9  4371.2031
402.8  4405.8906
402.7  4394.9219
402.6  4391.6563
402.5  4411.2188
402.4  4410.7813
402.3  4419.7813
402.2  4421.4219
402.1  4430.8125
402  4436.6719
401.9  4442.5781
401.8  4450.0625
401.7  4449.4375
401.6  4450.8125
401.5  4457.3125
401.4  4452.8281
401.3  4455.5313
401.2  4450.4063
401.1  4459.4219
401  4469.6563
400.9  4448.2344
400.8  4453.625
400.7  4453.5
400.6  4463.5313
400.5  4458.4844
400.4  4463.6094
400.3  4449.9844
400.2  4458.375
400.1  4452.6719
400  4437.4219
399.9  4430.6719
399.8  4442.4219
399.7  4436.2031
399.6  4453.0625
399.5  4454.7031
399.4  4439.1406
399.3  4456.7969
399.2  4447.5469
399.1  4427.9531
399  4440.7344
398.9  4421.1875
398.8  4431.3281
398.7  4437.8125
398.6  4420.6094
398.5  4406.5156
398.4  4410.9375
398.3  4418.8438
398.2  4403.8594
398.1  4418.2188
398  4413.4844
397.9  4406.5313
397.8  4409.3906
397.7  4382.7344
397.6  4391.0469
397.5  4395.5625
397.4  4392.6719
397.3  4403.4375
397.2  4383.1719
397.1  4390.0156
397  4392.9531
396.9  4397.2969
396.8  4381.3281
396.7  4384.7969
396.6  4407
396.5  4396.5156
396.4  4399.6719
396.3  4386.0938
396.2  4397.6719
396.1  4415.1563
396  4393.6563
395.9  4395.2344
395.8  4395.9844
395.7  4416.4531
395.6  4397.4844
395.5  4403
395.4  4403.7969
395.3  4412.5313
395.2  4415.2188
395.1  4402.8594
395  4417.25

# Region:            C 1s
# Acquisition Date:  05/23/21 11:26:28 UTC
# Analysis Method:   XPS
# Analyzer:          Phoibos 100 R6
# Analyzer Lens:     LargeArea:1.5kV
# Analyzer Slit:     1:0.2x20\B:open
# Scan Mode:         FixedAnalyzerTransmission
# Curves/Scan:       1
# Values/Curve:      151
# Dwell Time:        0.8
# Excitation Energy: 1486.61
# Binding Energy:    295
# Pass Energy:       30
# Bias Voltage:      90
# Detector Voltage:  2400
# Eff. Workfunction: 4.309
# Source:            X-Ray Dummy
# Comment:           
#
# Cycle: 0
# Number of Scans: 10
#
# Cycle: 0, Curve: 0
# Acquisition Date: 05/23/21 11:26:28 UTC
#
# ColumnLabels: energy counts/s
#
295  2520.375
294.9  2530.625
294.8  2532.25
294.7  2522.125
294.6  2527.375
294.5  2521.25
294.4  2568.625
294.3  2552.25
294.2  2557.125
294.1  2517.75
294  2522.5
293.9  2548.875
293.8  2539
293.7  2535.25
293.6  2532.125
293.5  2563.375
293.4  2573.875
293.3  2540.875
293.2  2563.875
293.1  2527.75
293  2546.375
292.9  2532.375
292.8  2521.875
292.7  2517.75
292.6  2526
292.5  2547.5
292.4  2547.125
292.3  2554.375
292.2  2536.875
292.1  2566.5
292  2533.625
291.9  2544.875
291.8  2508.125
291.7  2566.125
291.6  2541.875
291.5  2517.125
291.4  2539.375
291.3  2532.75
291.2  2584.125
291.1  2527.875
291  2582
290.9  2573.5
290.8  2561.125
290.7  2554.625
290.6  2561.5
290.5  2559.25
290.4  2600.125
290.3  2566.875
290.2  2569.125
290.1  2568.75
290  2567.5
289.9  2597.375
289.8  2595.625
289.7  2599.375
289.6  2583.125
289.5  2592.25
289.4  2627.375
289.3  2583.5
289.2  2584.25
289.1  2578.5
289  2626.25
288.9  2607.25
288.8  2616.375
288.7  2652
288.6  2657.625
288.5  2686.125
288.4  2654.75
288.3  2673.625
288.2  2703.375
288.1  2753.375
288  2728.125
287.9  2746.25
287.8  2748.625
287.7  2776.125
287.6  2825.25
287.5  2805.125
287.4  2804
287.3  2853.25
287.2  2873.75
287.1  2877.625
287  2885.375
286.9  2919.875
286.8  2913.625
286.7  2907
286.6  2959
286.5  2941
286.4  2969.75
286.3  2985.25
286.2  2963.625
286.1  2987.375
286  2988.75
285.9  2965.875
285.8  2976.25
285.7  2959.875
285.6  2966.125
285.5  2970.625
285.4  2950.875
285.3  2974
285.2  2891.875
285.1  2904.625
285  2891.625
284.9  2863.125
284.8  2849.875
284.7  2849.75
284.6  2835.625
284.5  2787
284.4  2787.875
284.3  2789.25
284.2  2738.625
284.1  2707.625
284  2705.75
283.9  2637.625
283.8  2655.5
283.7  2649.875
283.6  2597.375
283.5  2609.25
283.4  2648.625
283.3  2615.5
283.2  2661.625
283.1  2591.375
283  2573.625
282.9  2596
282.8  2526.75
282.7  2566.875
282.6  2570.625
282.5  2574.5
282.4  2576.25
282.3  2573.25
282.2  2589.125
282.1  2524
282  2563
281.9  2564.75
281.8  2552.375
281.7  2514.5
281.6  2564.625
281.5  2560
281.4  2528.625
281.3  2515.75
281.2  2533.125
281.1  2538.375
281  2564.875
280.9  2532
280.8  2545.25
280.7  2510.25
280.6  2531.75
280.5  2522.375
280.4  2533.375
280.3  2506.25
280.2  2539.625
280.1  2545.375
280  2537.625

# Region:            overview
# Acquisition Date:  05/23/21 09:47:25 UTC
# Analysis Method:   XPS
# Analyzer:          Phoibos 100 R6
# Analyzer Lens:     MediumArea:1.5kV
# Analyzer Slit:     1:0.2x20\B:open
# Scan Mode:         FixedAnalyzerTransmission
# Curves/Scan:       1
# Values/Curve:      1205
# Dwell Time:        0.2
# Excitation Energy: 1486.61
# Binding Energy:    1200
# Pass Energy:       50
# Bias Voltage:      90
# Detector Voltage:  2400
# Eff. Workfunction: 4.309
# Source:            X-Ray Dummy
# Comment:           
#
# Cycle: 0
# Number of Scans: 1
#
# Cycle: 0, Curve: 0
# Acquisition Date: 05/23/21 09:47:25 UTC
#
# ColumnLabels: energy counts/s
#
1200  7440
1199  7555
1198  7410
1197  7155
1196  7290
1195  7690
1194  7305
1193  7080
1192  7100
1191  7215
1190  7145
1189  7205
1188  6830
1187  7370
1186  6955
1185  7095
1184  6770
1183  6960
1182  6595
1181  6850
1180  6610
1179  6775
1178  6970
1177  6700
1176  6505
1175  6710
1174  6625
1173  6880
1172  6750
1171  6930
1170  6660
1169  6820
1168  6495
1167  6585
1166  6515
1165  6715
1164  6880
1163  6560
1162  6545
1161  6265
1160  6245
1159  6365
1158  6615
1157  6395
1156  6140
1155  6370
1154  6690
1153  6255
1152  6340
1151  6505
1150  6105
1149  6340
1148  6100
1147  6175
1146  6635
1145  6400
1144  6425
1143  6135
1142  6080
1141  6515
1140  5840
1139  6145
1138  6220
1137  5865
1136  5980
1135  6150
1134  6155
1133  5520
1132  6240
1131  5750
1130  6215
1129  5960
1128  5880
1127  5605
1126  6185
1125  5890
1124  5520
1123  5680
1122  5705
1121  5950
1120  6050
1119  5540
1118  5940
1117  5650
1116  5575
1115  5890
1114  5705
1113  5605
1112  6040
1111  5475
1110  5435
1109  5735
1108  5790
1107  5450
1106  5865
1105  5415
1104  5500
1103  5535
1102  5525
1101  5850
1100  5470
1099  5800
1098  5655
1097  5390
1096  5295
1095  5465
1094  5385
1093  5305
1092  5460
1091  5225
1090  5290
1089  5380
1088  5455
1087  5225
1086  5525
1085  5335
1084  5295
1083  5160
1082  5140
1081  5255
1080  5375
1079  5030
1078  4965
1077  4670
1076  5235
1075  5260
1074  5205
1073  5290
1072  5195
1071  5165
1070  5030
1069  5255
1068  4715
1067  4870
1066  5225
1065  5080
1064  5110
1063  5010
1062  5065
1061  4850
1060  5055
1059  5065
1058  5035
1057  5250
1056  4795
1055  5005
1054  5265
1053  4695
1052  4630
1051  4665
1050  5195
1049  5155
1048  4820
1047  5275
1046  5060
1045  5135
1044  4790
1043  4775
1042  4775
1041  4620
1040  4820
1039  5160
1038  4860
1037  5070
1036  4865
1035  4895
1034  4820
1033  4720
1032  4850
1031  4505
1030  4530
1029  4885
1028  4860
1027  4535
1026  4775
1025  4735
1024  4735
1023  4780
1022  4695
1021  4795
1020  5005
1019  4730
1018  4840
1017  4595
1016  4690
1015  4410
1014  4390
1013  4845
1012  4400
1011  4810
1010  4695
1009  4495
1008  4700
1007  4660
1006  4880
1005  4860
1004  4765
1003  4335
1002  4605
1001  4300
1000  4380
999  4880
998  4530
997  4595
996  4165
995  4560
994  4530
993  4390
992  4590
991  4495
990  4575
989  4575
988  4605
987  4435
986  4660
985  4480
984  4780
983  4750
982  4200
981  4580
980  4535
979  4765
978  4495
977  4560
976  4430
975  4575
974  4545
973  4405
972  4235
971  4350
970  4330
969  4445
968  4615
967  4515
966  4260
965  4740
964  4175
963  4345
962  4395
961  4570
960  4185
959  4290
958  4355
957  4310
956  4505
955  4505
954  4365
953  4375
952  4330
951  4250
950  4595
949  4460
948  4425
947  4640
946  4405
945  4580
944  4355
943  4220
942  4500
941  4425
940  4510
939  4345
938  4395
937  4355
936  4475
935  4145
934  4510
933  4110
932  4445
931  4255
930  4355
929  4070
928  4585
927  4425
926  4385
925  4450
924  4245
923  4345
922  4345
921  4355
920  4725
919  4140
918  4125
917  4565
916  4175
915  4450
914  4515
913  4540
912  4275
911  4180
910  4425
909  4340
908  4375
907  4145
906  4335
905  4340
904  4305
903  4245
902  4265
901  4240
900  4120
899  4295
898  4255
897  4430
896  4250
895  4030
894  4385
893  4365
892  4255
891  4250
890  4405
889  4050
888  4205
887  4445
886  4110
885  4160
884  4100
883  4075
882  4350
881  4305
880  4465
879  3965
878  4190
877  4320
876  4135
875  4450
874  4495
873  4455
872  4415
871  4440
870  4065
869  4335
868  4405
867  4745
866  4235
865  4235
864  4365
863  4115
862  4240
861  4265
860  4310
859  4345
858  4055
857  4125
856  4125
855  4150
854  4355
853  4360
852  4140
851  4530
850  4515
849  4420
848  4255
847  4305
846  4330
845  4410
844  4425
843  4480
842  4480
841  4125
840  4135
839  4560
838  4240
837  4520
836  4495
835  4525
834  4295
833  4475
832  4355
831  4500
830  4585
829  4395
828  4345
827  4435
826  4560
825  4085
824  4630
823  4295
822  4450
821  4335
820  4330
819  4405
818  4600
817  4270
816  4680
815  4200
814  4440
813  4405
812  4455
811  4245
810  4385
809  4515
808  4310
807  4265
806  4445
805  4140
804  4440
803  4545
802  4630
801  4460
800  4380
799  4575
798  4265
797  4580
796  4680
795  4655
794  4680
793  4515
792  4465
791  4480
790  4640
789  4560
788  4400
787  4520
786  4505
785  4670
784  4470
783  4590
782  4365
781  4810
780  4630
779  4665
778  4585
777  4625
776  4400
775  4385
774  4155
773  4245
772  4540
771  4675
770  4600
769  4715
768  4845
767  4495
766  4830
765  4520
764  4790
763  4480
762  4655
761  4725
760  4455
759  4590
758  4700
757  4540
756  4750
755  4385
754  4460
753  4460
752  4535
751  4355
750  4560
749  4680
748  4445
747  4410
746  4495
745  4580
744  4115
743  4195
742  4255
741  4205
740  4475
739  4605
738  4490
737  4290
736  4625
735  4805
734  4570
733  4560
732  4710
731  4460
730  4340
729  4555
728  4625
727  4480
726  4655
725  4685
724  4090
723  4565
722  4305
721  4535
720  4550
719  4400
