# Created by:        SpecsLab Prodigy, Version 4.60.2-r85849 
#
# XY-Serializer Export Settings:
#   Comment Prefix:           #
#   Output meta data:         yes
#   Energy Axis:              Binding Energy
#   Count Rate:               Counts per Second
#   Separate Scan Data:       no
#   Separate Channel Data:    no
#   External Channel Data:    yes
#   Transmission Function:    no
#   ErrorBar:                 no
#   Operation Results:        yes
#   Time Zone Format:         UTC
#
# Group:             20210507_Au111_clean
#
# Region:            N 1s
# Acquisition Date:  05/23/21 07:46:45 UTC
# Analysis Method:   XPS
# Analyzer:          Phoibos 100 R6
# Analyzer Lens:     LargeArea:1.5kV
# Analyzer Slit:     1:0.2x20\B:open
# Scan Mode:         FixedAnalyzerTransmission
# Curves/Scan:       1
# Values/Curve:      101
# Dwell Time:        0.8
# Excitation Energy: 1486.61
# Binding Energy:    405
# Pass Energy:       30
# Bias Voltage:      90
# Detector Voltage:  2400
# Eff. Workfunction: 4.309
# Source:            X-Ray Dummy
# Comment:           
#
# Cycle: 0
# Number of Scans: 100
#
# Cycle: 0, Curve: 0
# Acquisition Date: 05/23/21 07:46:45 UTC
#
# ColumnLabels: energy counts/s
#
405  4380.525
404.9  4378.55
404.8  4385.0625
404.7  4386.25
404.6  4383.25
404.5  4386.65
404.4  4394.0625
404.3  4405.1375
404.2  4394.275
404.1  4396.95
404  4396.95
403.9  4398.65
403.8  4410.0375
403.7  4405.55
403.6  4404.0375
403.5  4409.3875
403.4  4415.6625
403.3  4415.5375
403.2  4426.4625
403.1  4418.3
403  4419.3
402.9  4437.4875
402.8  4423.65
402.7  4428.3625
402.6  4443.025
402.5  4428.1125
402.4  4451.1625
402.3  4458.925
402.2  4460.075
402.1  4460.875
402  4462.5375
401.9  4473.6875
401.8  4457.0625
401.7  4479.4375
401.6  4466.475
401.5  4489.7375
401.4  4494.75
401.3  4473.9125
401.2  4490.475
401.1  4486.6625
401  4494.6625
400.9  4485.3625
400.8  4490.1625
400.7  4479.125
400.6  4492.275
400.5  4489.55
400.4  4494.9875
400.3  4488.7625
400.2  4491.7375
400.1  4504.7125
400  4494.7
399.9  4486.0125
399.8  4481.825
399.7  4478.6875
399.6  4476.1875
399.5  4480.5125
399.4  4474.1375
399.3  4469.325
399.2  4458.5625
399.1  4454.7125
399  4465.4625
398.9  4471.25
398.8  4465.45
398.7  4460.1875
398.6  4446.1125
398.5  4441.0875
398.4  4459.575
398.3  4428.85
398.2  4441.5
398.1  4441.5125
398  4443.0375
397.9  4436.35
397.8  4415.625
397.7  4439.875
397.6  4431.125
397.5  4420.725
397.4  4429.1375
397.3  4426.2375
397.2  4434.475
397.1  4428.5875
397  4421.8375
396.9  4412.55
396.8  4429.225
396.7  4427.775
396.6  4415.7875
396.5  4428.8
396.4  4423.4375
396.3  4428.8125
396.2  4433.025
396.1  4424.5875
396  4426.15
395.9  4455.425
395.8  4443.525
395.7  4441.525
395.6  4452.55
395.5  4438.6375
395.4  4468.4125
395.3  4439.55
395.2  4448.2
395.1  4443.3125
395  4458.7125

# Region:            C 1s
# Acquisition Date:  05/23/21 00:13:47 UTC
# Analysis Method:   XPS
# Analyzer:          Phoibos 100 R6
# Analyzer Lens:     LargeArea:1.5kV
# Analyzer Slit:     1:0.2x20\B:open
# Scan Mode:         FixedAnalyzerTransmission
# Curves/Scan:       1
# Values/Curve:      151
# Dwell Time:        0.8
# Excitation Energy: 1486.61
# Binding Energy:    295
# Pass Energy:       30
# Bias Voltage:      90
# Detector Voltage:  2400
# Eff. Workfunction: 4.309
# Source:            X-Ray Dummy
# Comment:           
#
# Cycle: 0
# Number of Scans: 30
#
# Cycle: 0, Curve: 0
# Acquisition Date: 05/23/21 00:13:47 UTC
#
# ColumnLabels: energy counts/s
#
295  2581.625
294.9  2569.9583
294.8  2575.6667
294.7  2570.4583
294.6  2576.5
294.5  2592.75
294.4  2582.5417
294.3  2566.1667
294.2  2563.75
294.1  2570.6667
294  2569.375
293.9  2575.6667
293.8  2571.7083
293.7  2587.7917
293.6  2559.125
293.5  2570.875
293.4  2566.0833
293.3  2589.8333
293.2  2576.875
293.1  2577.0833
293  2603.0417
292.9  2572.3333
292.8  2586.5417
292.7  2572.25
292.6  2577.9167
292.5  2591.7917
292.4  2604.0417
292.3  2581.5833
292.2  2596.3333
292.1  2582.75
292  2567.375
291.9  2572.3333
291.8  2597.7083
291.7  2612.9583
291.6  2594.7083
291.5  2587.125
291.4  2601
291.3  2600.125
291.2  2610.4583
291.1  2591.7083
291  2604.2083
290.9  2609.9583
290.8  2587.625
290.7  2582.6667
290.6  2605.2083
290.5  2602.375
290.4  2611.7917
290.3  2602.0417
290.2  2619.1667
290.1  2605.5417
290  2607.3333
289.9  2585.2917
289.8  2602.2917
289.7  2611.6667
289.6  2606.7083
289.5  2619.6667
289.4  2616.875
289.3  2641
289.2  2646.7083
289.1  2633.875
289  2659.9583
288.9  2641.7083
288.8  2659.125
288.7  2660.5417
288.6  2679.25
288.5  2689
288.4  2708.25
288.3  2721.4583
288.2  2759.7917
288.1  2747.8333
288  2769.9583
287.9  2803.0833
287.8  2838.3333
287.7  2827.2917
287.6  2844.9583
287.5  2882.4583
287.4  2887.875
287.3  2899.25
287.2  2913.2083
287.1  2944.875
287  2958.7083
286.9  2946.125
286.8  2964.6667
286.7  2986.625
286.6  2987.625
286.5  2991.8333
286.4  2986.8333
286.3  3004.2917
286.2  2997.4167
286.1  3003.7083
286  3016.4167
285.9  2994.5
285.8  2983.3333
285.7  2986.375
285.6  3017.0417
285.5  2996.4583
285.4  2979.375
285.3  2996.0417
285.2  2988.9583
285.1  2951.375
285  2921.9167
284.9  2936.5
284.8  2896.375
284.7  2870.9583
284.6  2854.8333
284.5  2809.9167
284.4  2837.125
284.3  2786.625
284.2  2760.2083
284.1  2743.9167
284  2719.7083
283.9  2723.8333
283.8  2680.8333
283.7  2668.7917
283.6  2664.4583
283.5  2657.125
283.4  2636
283.3  2627.0417
283.2  2638.5
283.1  2604.0833
283  2615
282.9  2598.625
282.8  2611.625
282.7  2612.7083
282.6  2598.4167
282.5  2590.9583
282.4  2594.3333
282.3  2574.9167
282.2  2604.4583
282.1  2587.1667
282  2576.9167
281.9  2577.75
281.8  2576
281.7  2576.4167
281.6  2572.7917
281.5  2591
281.4  2562.9167
281.3  2563
281.2  2561.5417
281.1  2574.0833
281  2562.5
280.9  2572.0417
280.8  2552
280.7  2575.7083
280.6  2576.3333
280.5  2561.5
280.4  2554.5833
280.3  2553.1667
280.2  2571.875
280.1  2554.875
280  2567.75

# Region:            O 1s
# Acquisition Date:  05/23/21 09:26:31 UTC
# Analysis Method:   XPS
# Analyzer:          Phoibos 100 R6
# Analyzer Lens:     LargeArea:1.5kV
# Analyzer Slit:     1:0.2x20\B:open
# Scan Mode:         FixedAnalyzerTransmission
# Curves/Scan:       1
# Values/Curve:      351
# Dwell Time:        0.8
# Excitation Energy: 1486.61
# Binding Energy:    560
# Pass Energy:       30
# Bias Voltage:      90
# Detector Voltage:  2400
# Eff. Workfunction: 4.309
# Source:            X-Ray Dummy
# Comment:           
#
# Cycle: 0
# Number of Scans: 120
#
# Cycle: 0, Curve: 0
# Acquisition Date: 05/23/21 09:26:31 UTC
#
# ColumnLabels: energy counts/s
#
560  4624.6667
559.9  4625.5208
559.8  4637.6042
559.7  4625.2292
559.6  4627.2292
559.5  4636.7292
559.4  4631.5104
559.3  4637.7708
559.2  4640.4375
559.1  4626.6146
559  4624.3646
558.9  4629.6771
558.8  4634.1458
558.7  4619.0625
558.6  4631.7708
558.5  4629.7292
558.4  4629.0729
558.3  4638.4688
558.2  4638.4792
558.1  4615.3229
558  4630.25
557.9  4622.7604
557.8  4639.6563
557.7  4625.0938
557.6  4629.7188
557.5  4638.0938
557.4  4644.9583
557.3  4618.7188
557.2  4637.3021
557.1  4622.125
557  4632.8854
556.9  4638.4167
556.8  4629.9688
556.7  4635.4688
556.6  4636.6771
556.5  4639.5208
556.4  4648.5417
556.3  4631.1354
556.2  4636.5833
556.1  4631.5104
556  4634.8438
555.9  4640.9167
555.8  4641.7917
555.7  4631.6458
555.6  4641.6563
555.5  4654.0729
555.4  4652.8229
555.3  4657.0938
555.2  4657.7188
555.1  4669
555  4652.5208
554.9  4674.3958
554.8  4664.4375
554.7  4659.0417
554.6  4663.9167
554.5  4667.1563
554.4  4667.3229
554.3  4689.4167
554.2  4676.5104
554.1  4684.125
554  4697.1771
553.9  4697.5
553.8  4689.2188
553.7  4706.5104
553.6  4710.7604
553.5  4714.4688
553.4  4714.9063
553.3  4713.3229
553.2  4737.5938
553.1  4727.7083
553  4739.5729
552.9  4739.9688
552.8  4747.4271
552.7  4752.7396
552.6  4766.125
552.5  4765.7083
552.4  4768
552.3  4790.8958
552.2  4801.1354
552.1  4813.3958
552  4829.375
551.9  4817.9063
551.8  4844.0104
551.7  4853.3958
551.6  4860.375
551.5  4881.1667
551.4  4886.3958
551.3  4887.4688
551.2  4901.9167
551.1  4913.9688
551  4940.3229
550.9  4944.2708
550.8  4968.5521
550.7  4975.0104
550.6  4988.8438
550.5  5012.5625
550.4  5028.2083
550.3  5046.5104
550.2  5056.8021
550.1  5080.5729
550  5112.2708
549.9  5121.3958
549.8  5147.125
549.7  5174.7604
549.6  5200.5729
549.5  5213.4688
549.4  5246.3542
549.3  5276.7917
549.2  5314.5625
549.1  5334.2604
549  5380.0729
548.9  5399.2604
548.8  5410.8438
548.7  5455.4271
548.6  5478.0938
548.5  5504.625
548.4  5538.6979
548.3  5590.8854
548.2  5602.1875
548.1  5632.7292
548  5657.3646
547.9  5704.4271
547.8  5727.4896
547.7  5747.4063
547.6  5775.0521
547.5  5795.1563
547.4  5820.1146
547.3  5826.8229
547.2  5865.2396
547.1  5873.6042
547  5864.8542
546.9  5886.6042
546.8  5899.2188
546.7  5909.0521
546.6  5890.4167
546.5  5878.0729
546.4  5889.4792
546.3  5858.2917
546.2  5862.8333
546.1  5833.7083
546  5817.25
545.9  5798.9375
545.8  5764.1458
545.7  5740.0938
545.6  5712.5417
545.5  5680.5625
545.4  5639.7292
545.3  5613.6458
545.2  5564.7292
545.1  5526.6458
545  5502.0208
544.9  5461.1875
544.8  5414.2604
544.7  5379.7292
544.6  5340.125
544.5  5299.2813
544.4  5265.3438
544.3  5219.5938
544.2  5206.4167
544.1  5155.8542
544  5120.5521
543.9  5102.3542
543.8  5071.5625
543.7  5032.2396
543.6  5008.7917
543.5  4970.0833
543.4  4943.0521
543.3  4926.9688
543.2  4894.6875
543.1  4879.1875
543  4843.1667
542.9  4817.8646
542.8  4792.0417
542.7  4760.7083
542.6  4752.5104
542.5  4726.8958
542.4  4711.5833
542.3  4690.8438
542.2  4674.875
542.1  4658.75
542  4646
541.9  4624.6667
541.8  4607.75
541.7  4589.9688
541.6  4592.2917
541.5  4576.0313
541.4  4565.8646
541.3  4542.2292
541.2  4537.0313
541.1  4513.8021
541  4500.1979
540.9  4513.4792
540.8  4500.7083
540.7  4475.9063
540.6  4486.6979
540.5  4454.9896
540.4  4447.0313
540.3  4452.1667
540.2  4434.5729
540.1  4432.7188
540  4425.9479
539.9  4415.5313
539.8  4415.6042
539.7  4400.5313
539.6  4405.6667
539.5  4391.0729
539.4  4397.6667
539.3  4382.4583
539.2  4378.0729
539.1  4369.9063
539  4373.0417
538.9  4356.7396
538.8  4364.3438
538.7  4362.1563
538.6  4362.6667
538.5  4355.4896
538.4  4362.3958
538.3  4352.9792
538.2  4342.3333
538.1  4348.6458
538  4352.8542
537.9  4348.0104
537.8  4345.0104
537.7  4335
537.6  4350.1563
537.5  4339.0417
537.4  4357.6563
537.3  4345.5313
537.2  4337.2083
537.1  4333.5625
537  4327.1458
536.9  4328.1563
536.8  4337.875
536.7  4329.2188
536.6  4333.25
536.5  4328.5625
536.4  4322.0313
536.3  4317.9479
536.2  4325.1563
536.1  4326.4479
536  4323.8958
535.9  4334.0208
535.8  4321.6354
535.7  4320.7917
535.6  4332.8229
535.5  4324.0417
535.4  4316.6354
535.3  4336.0208
535.2  4334.9583
535.1  4353.8542
535  4356.6979
534.9  4364.2813
534.8  4360.1042
534.7  4386.9271
534.6  4387.1042
534.5  4407.5729
534.4  4437.6458
534.3  4455.8229
534.2  4472
534.1  4481.625
534  4498.5938
533.9  4513.0729
533.8  4526.1563
533.7  4520.2917
533.6  4543.9167
533.5  4526.2604
533.4  4525.1042
533.3  4541.4063
533.2  4521.4792
533.1  4520.1771
533  4486.4375
532.9  4466.8854
532.8  4460.9479
532.7  4420.6771
532.6  4415.9271
532.5  4388.2083
532.4  4362.0938
532.3  4344.8854
532.2  4327.5104
532.1  4323.2292
532  4295.9063
531.9  4275.0104
531.8  4270.5104
531.7  4271.0208
531.6  4268.0521
531.5  4255.6042
531.4  4254.6875
531.3  4238.7813
531.2  4228.3646
531.1  4229.7813
531  4210.3542
530.9  4216.25
530.8  4201.9688
530.7  4181.6875
530.6  4168.5729
530.5  4169.0625
530.4  4149.5104
530.3  4148.9688
530.2  4132.1042
530.1  4124.8646
530  4126.0938
529.9  4099.3854
529.8  4108.8854
529.7  4089.6146
529.6  4081.5833
529.5  4076.8021
529.4  4062.625
529.3  4069.9167
529.2  4057.8958
529.1  4075.0417
529  4056.1146
528.9  4050.1979
528.8  4046.8646
528.7  4057.1042
528.6  4046.2604
528.5  4050.7083
528.4  4043.5938
528.3  4043.2917
528.2  4031.7083
528.1  4047.4063
528  4047.2813
527.9  4046.1458
527.8  4039
527.7  4043.7813
527.6  4044.5
527.5  4040.0104
527.4  4032.7604
527.3  4035.2188
527.2  4024.6146
527.1  4030.6875
527  4024.1354
526.9  4039.0833
526.8  4025.8229
526.7  4029.8646
526.6  4025.9896
526.5  4026.1354
526.4  4026.8438
526.3  4013.0104
526.2  4020.9792
526.1  4019.0938
526  4023.9063
525.9  4015.8542
525.8  4018.9792
525.7  4018.8646
525.6  4015.8229
525.5  4008.4583
525.4  4026.2708
525.3  4014.3125
525.2  4028.4375
525.1  4016.9792
525  4026.4375

# Region:            Ba 3d
# Acquisition Date:  05/23/21 02:45:22 UTC
# Analysis Method:   XPS
# Analyzer:          Phoibos 100 R6
# Analyzer Lens:     LargeArea:1.5kV
# Analyzer Slit:     1:0.2x20\B:open
# Scan Mode:         FixedAnalyzerTransmission
# Curves/Scan:       1
# Values/Curve:      81
# Dwell Time:        0.8
# Excitation Energy: 1486.61
# Binding Energy:    784
# Pass Energy:       30
# Bias Voltage:      90
# Detector Voltage:  2400
# Eff. Workfunction: 4.309
# Source:            X-Ray Dummy
# Comment:           
#
# Cycle: 0
# Number of Scans: 50
#
# Cycle: 0, Curve: 0
# Acquisition Date: 05/23/21 02:45:22 UTC
#
# ColumnLabels: energy counts/s
#
784  5335.7
783.9  5322.6
783.8  5341.675
783.7  5353.45
783.6  5336.075
783.5  5344.075
783.4  5311.85
783.3  5341.575
783.2  5329.075
783.1  5342.175
783  5341.175
782.9  5364.475
782.8  5351.3
782.7  5348.55
782.6  5363.05
782.5  5373.7
782.4  5365.525
782.3  5375.575
782.2  5355.75
782.1  5381.425
782  5396.875
781.9  5400.275
781.8  5406.225
781.7  5396.575
781.6  5420.025
781.5  5406.625
781.4  5403.175
781.3  5416.3
781.2  5428.45
781.1  5431.275
781  5415.575
780.9  5433.125
780.8  5435.825
780.7  5438.4
780.6  5422.625
780.5  5394.85
780.4  5398.65
780.3  5389.125
780.2  5374.275
780.1  5384.475
780  5357.05
779.9  5357.475
779.8  5366.275
779.7  5345.325
779.6  5354.825
779.5  5335.575
779.4  5304.6
779.3  5337.45
779.2  5328.625
779.1  5304.025
779  5311
778.9  5324.7
778.8  5307.45
778.7  5294.5
778.6  5306.075
778.5  5319.6
778.4  5318.05
778.3  5327.725
778.2  5306.025
778.1  5323.075
778  5294.125
777.9  5294.05
777.8  5317.575
777.7  5301.175
777.6  5290.9
777.5  5293.4
777.4  5294.875
777.3  5289.75
777.2  5282.675
777.1  5284.675
777  5273.625
776.9  5300.3
776.8  5290.6
776.7  5279.125
776.6  5288.675
776.5  5286.15
776.4  5287.125
776.3  5292.175
776.2  5307.85
776.1  5285.275
776  5282.2

# Operation:         Peak Fit
# Parameter: "Transition" = 
# Parameter: "Label" = 
# Parameter: "Background Method" = Tougaard
# Parameter: "Peak Shape" = Voigt
# Parameter: "Asymmetric Peak" = false
# Parameter: "FWHM-Annotation" = S-B = <Signal-BG:@>\nFWHM = <FWHM:@>\nArea = <Area:@>
# Parameter: "Peak-Annotation" = <Label>\n<Transition>\nE = <Center:@>
#
# Result:
# Number of Results: 2
# Parameter: "Transition" = 
# Parameter: "Label" = 
# Parameter: "Center" = 781.04834684694322 eV +- 0.041313670463637209
# Parameter: "Area" = 548.56702482690503 cps eV +- 88.053543491387984
# Parameter: "FWHM Lorentzian" = 2.3089625582001174 eV +- 0.65588869541352812
# Parameter: "FWHM Gaussian" = 0.76708393047032264 eV +- 0.95116487208184908
# Parameter: "Asymmetry" = 0 +- 0
# Parameter: "Tougaard B" = 63526.790703202896 eV^2 +- 14907.439164646095
# Parameter: "Tougaard C" = 1643 eV^2 +- 0
# Parameter: "FWHM" = 2.5546614129366545 eV
# Parameter: "Offset (0th order)" = 5279.9781485154363 cps +- 5.6982254937170183
# Parameter: "Abbe factor" = 0.93500717012556578
# Parameter: "Reduced Chi Square" = 0.97538686968023414
# Parameter: "Q Probability" = 0.53824539698605034
# Parameter: "Number of performed iterations" = 20
# Parameter: "Fit termination reason" = ConvergedInParameter
# Parameter: "Signal" = 5428.7761903185001 cps
# Parameter: "Signal-BG" = 141.32376265669214 cps
#
# Result Name:       Background
# Number of Curves:  1
#
# Curve:             0
# Values/Curve:      64
#
784  5314.888
783.87302  5313.4302
783.74603  5311.9898
783.61905  5310.5671
783.49206  5309.1623
783.36508  5307.7761
783.2381  5306.4092
783.11111  5305.0621
782.98413  5303.7359
782.85714  5302.4317
782.73016  5301.1508
782.60317  5299.8946
782.47619  5298.665
782.34921  5297.4639
782.22222  5296.2938
782.09524  5295.1572
781.96825  5294.057
781.84127  5292.9962
781.71429  5291.9782
781.5873  5291.006
781.46032  5290.0827
781.33333  5289.2111
781.20635  5288.3931
781.07937  5287.6303
780.95238  5286.9231
780.8254  5286.2711
780.69841  5285.6729
780.57143  5285.1264
780.44444  5284.6287
780.31746  5284.1767
780.19048  5283.7667
780.06349  5283.3951
779.93651  5283.0585
779.80952  5282.7534
779.68254  5282.4767
779.55556  5282.2256
779.42857  5281.9975
779.30159  5281.7902
779.1746  5281.6015
779.04762  5281.4296
778.92063  5281.2731
778.79365  5281.1305
778.66667  5281.0006
778.53968  5280.8822
778.4127  5280.7745
778.28571  5280.6765
778.15873  5280.5874
778.03175  5280.5066
777.90476  5280.4335
777.77778  5280.3675
777.65079  5280.3081
777.52381  5280.2548
777.39683  5280.2074
777.26984  5280.1652
777.14286  5280.1282
777.01587  5280.0958
776.88889  5280.0679
776.7619  5280.0442
776.63492  5280.0245
776.50794  5280.0085
776.38095  5279.996
776.25397  5279.9869
776.12698  5279.981
776  5279.9781

# Result Name:       Peak Fit
# Number of Curves:  1
#
# Curve:             0
# Values/Curve:      64
#
784  5335.498
783.87302  5335.6997
783.74603  5336.1141
783.61905  5336.7704
783.49206  5337.7029
783.36508  5338.9507
783.2381  5340.5594
783.11111  5342.5805
782.98413  5345.0716
782.85714  5348.0958
782.73016  5351.7188
782.60317  5356.0051
782.47619  5361.0103
782.34921  5366.7705
782.22222  5373.2862
782.09524  5380.5033
781.96825  5388.2912
781.84127  5396.4231
781.71429  5404.5655
781.5873  5412.2834
781.46032  5419.0687
781.33333  5424.3933
781.20635  5427.78
781.07937  5428.8786
780.95238  5427.5271
780.8254  5423.7819
780.69841  5417.9067
780.57143  5410.3255
780.44444  5401.5507
780.31746  5392.1078
780.19048  5382.4722
780.06349  5373.0285
779.93651  5364.0548
779.80952  5355.7262
779.68254  5348.1312
779.55556  5341.2928
779.42857  5335.1898
779.30159  5329.7741
779.1746  5324.9839
779.04762  5320.7531
778.92063  5317.0164
778.79365  5313.7132
778.66667  5310.7882
778.53968  5308.1929
778.4127  5305.8845
778.28571  5303.8259
778.15873  5301.9853
778.03175  5300.3353
777.90476  5298.8521
777.77778  5297.5154
777.65079  5296.3079
777.52381  5295.2144
777.39683  5294.2218
777.26984  5293.3191
777.14286  5292.4962
777.01587  5291.7448
776.88889  5291.0575
776.7619  5290.4276
776.63492  5289.8495
776.50794  5289.3183
776.38095  5288.8293
776.25397  5288.3788
776.12698  5287.9633
776  5287.5797

# Region:            overview
# Acquisition Date:  05/22/21 19:10:29 UTC
# Analysis Method:   XPS
# Analyzer:          Phoibos 100 R6
# Analyzer Lens:     MediumArea:1.5kV
# Analyzer Slit:     1:0.2x20\B:open
# Scan Mode:         FixedAnalyzerTransmission
# Curves/Scan:       1
# Values/Curve:      1205
# Dwell Time:        0.2
# Excitation Energy: 1486.61
# Binding Energy:    1200
# Pass Energy:       50
# Bias Voltage:      90
# Detector Voltage:  2400
# Eff. Workfunction: 4.309
# Source:            X-Ray Dummy
# Comment:           
#
# Cycle: 0
# Number of Scans: 1
#
# Cycle: 0, Curve: 0
# Acquisition Date: 05/22/21 19:10:29 UTC
#
# ColumnLabels: energy counts/s
#
1200  7295
1199  7890
1198  7415
1197  7135
1196  7365
1195  7265
1194  7195
1193  7000
1192  7300
1191  7065
1190  7360
1189  6875
1188  7115
1187  7295
1186  6965
1185  7245
1184  7160
1183  7110
1182  6895
1181  7260
1180  6930
1179  6985
1178  6945
1177  6690
1176  6600
1175  6790
1174  6630
1173  7065
1172  6865
1171  6635
1170  6655
1169  6905
1168  6760
1167  6680
1166  6775
1165  6685
1164  6750
1163  6985
1162  6425
1161  6615
1160  6835
1159  6830
1158  6675
1157  6700
1156  6370
1155  6405
1154  6270
1153  6580
1152  6125
1151  6265
1150  6430
1149  6130
1148  6365
1147  6600
1146  6225
1145  6590
1144  6340
1143  6285
1142  6200
1141  6545
1140  5840
1139  6105
1138  6020
1137  6155
1136  6085
1135  6215
1134  5955
1133  5930
1132  6020
