# Created by:        SpecsLab Prodigy, Version 4.60.2-r85849 
#
# XY-Serializer Export Settings:
#   Comment Prefix:           #
#   Output meta data:         yes
#   Energy Axis:              Binding Energy
#   Count Rate:               Counts per Second
#   Separate Scan Data:       no
#   Separate Channel Data:    no
#   External Channel Data:    yes
#   Transmission Function:    no
#   ErrorBar:                 no
#   Operation Results:        yes
#   Time Zone Format:         UTC
#
# Group:             20210507_Au111_clean
#
# Region:            N 1s
# Acquisition Date:  05/22/21 09:44:47 UTC
# Analysis Method:   XPS
# Analyzer:          Phoibos 100 R6
# Analyzer Lens:     LargeArea:1.5kV
# Analyzer Slit:     1:0.2x20\B:open
# Scan Mode:         FixedAnalyzerTransmission
# Curves/Scan:       1
# Values/Curve:      101
# Dwell Time:        0.8
# Excitation Energy: 1486.61
# Binding Energy:    405
# Pass Energy:       30
# Bias Voltage:      90
# Detector Voltage:  2400
# Eff. Workfunction: 4.309
# Source:            X-Ray Dummy
# Comment:           
#
# Cycle: 0
# Number of Scans: 200
#
# Cycle: 0, Curve: 0
# Acquisition Date: 05/22/21 09:44:47 UTC
#
# ColumnLabels: energy counts/s
#
405  4606.1687
404.9  4614.3
404.8  4611.5
404.7  4607.2188
404.6  4616.25
404.5  4611.7375
404.4  4613.1625
404.3  4619.8875
404.2  4628.0875
404.1  4637.2563
404  4626.7063
403.9  4621.5625
403.8  4629.5813
403.7  4619.325
403.6  4637.075
403.5  4629.225
403.4  4632.225
403.3  4630.7
403.2  4632.475
403.1  4640.2
403  4639.3813
402.9  4655.5188
402.8  4651.1687
402.7  4656.1375
402.6  4649.675
402.5  4664.8438
402.4  4670.2
402.3  4678.1938
402.2  4676.9313
402.1  4676.95
402  4678.3813
401.9  4693.7563
401.8  4689.6938
401.7  4713.1687
401.6  4699.3875
401.5  4704.7937
401.4  4707.6313
401.3  4717.7438
401.2  4711.9688
401.1  4720.6563
401  4726.3375
400.9  4721.5688
400.8  4719.7063
400.7  4716.2813
400.6  4725.6313
400.5  4717.15
400.4  4713.9125
400.3  4705.425
400.2  4715.1625
400.1  4725.2813
400  4728.7
399.9  4723.5063
399.8  4720.0938
399.7  4719.5125
399.6  4716.4375
399.5  4711.725
399.4  4714.9
399.3  4710.3875
399.2  4714.675
399.1  4703.6563
399  4700.1
398.9  4696.8
398.8  4697.7563
398.7  4708.6625
398.6  4684.95
398.5  4685.5625
398.4  4683.9625
398.3  4686.3063
398.2  4668.8562
398.1  4668.55
398  4677.9563
397.9  4669.6438
397.8  4667.15
397.7  4663.3375
397.6  4658.1625
397.5  4655.9563
397.4  4659.8125
397.3  4650.4625
397.2  4659.1875
397.1  4654.6687
397  4663.8375
396.9  4656.8438
396.8  4653.1313
396.7  4648
396.6  4663.0437
396.5  4660.075
396.4  4664.9063
396.3  4668.1563
396.2  4657.8063
396.1  4661.8375
396  4655
395.9  4665.85
395.8  4661.2875
395.7  4673.5313
395.6  4670.1313
395.5  4668.7063
395.4  4672.3125
395.3  4673.8
395.2  4663.1813
395.1  4677.7625
395  4687.825

# Region:            C 1s
# Acquisition Date:  05/22/21 11:05:56 UTC
# Analysis Method:   XPS
# Analyzer:          Phoibos 100 R6
# Analyzer Lens:     LargeArea:1.5kV
# Analyzer Slit:     1:0.2x20\B:open
# Scan Mode:         FixedAnalyzerTransmission
# Curves/Scan:       1
# Values/Curve:      151
# Dwell Time:        0.8
# Excitation Energy: 1486.61
# Binding Energy:    295
# Pass Energy:       30
# Bias Voltage:      90
# Detector Voltage:  2400
# Eff. Workfunction: 4.309
# Source:            X-Ray Dummy
# Comment:           
#
# Cycle: 0
# Number of Scans: 70
#
# Cycle: 0, Curve: 0
# Acquisition Date: 05/22/21 11:05:56 UTC
#
# ColumnLabels: energy counts/s
#
295  2706.1964
294.9  2694.3929
294.8  2696.5
294.7  2696.3929
294.6  2695.4643
294.5  2694.625
294.4  2715.1607
294.3  2707.7857
294.2  2704.9643
294.1  2693.4107
294  2716.7857
293.9  2708.8571
293.8  2700.25
293.7  2706.2143
293.6  2712.5357
293.5  2706.5536
293.4  2713.25
293.3  2714.1429
293.2  2706.5357
293.1  2712.4821
293  2708.625
292.9  2717.7679
292.8  2713.875
292.7  2704.9464
292.6  2701.4107
292.5  2717.6607
292.4  2712
292.3  2719.0893
292.2  2713.3036
292.1  2725.4643
292  2713.9286
291.9  2730.5714
291.8  2711.2857
291.7  2729.8929
291.6  2703.8393
291.5  2726.9286
291.4  2726.625
291.3  2711.2857
291.2  2723.0714
291.1  2719.0357
291  2722.7143
290.9  2713.2143
290.8  2716.7679
290.7  2721.3929
290.6  2725.5357
290.5  2721.1607
290.4  2721.0714
290.3  2737.1071
290.2  2728.4107
290.1  2735.7143
290  2728.9286
289.9  2732.375
289.8  2746.0536
289.7  2744.4107
289.6  2745.625
289.5  2744.6607
289.4  2729.6786
289.3  2747.6071
289.2  2738.0179
289.1  2763.7143
289  2758.5
288.9  2780.7679
288.8  2776.8214
288.7  2782.7857
288.6  2783.2321
288.5  2792.3393
288.4  2818.4821
288.3  2819.1607
288.2  2840
288.1  2846.4464
288  2868.3036
287.9  2881.2679
287.8  2913.0714
287.7  2934.6964
287.6  2961.2857
287.5  2970.5179
287.4  2992.0179
287.3  3003.25
287.2  3032.0714
287.1  3048.0179
287  3054.3929
286.9  3087.9286
286.8  3094.1429
286.7  3101.3036
286.6  3105.0893
286.5  3110.2321
286.4  3118.2679
286.3  3144.1607
286.2  3119.5179
286.1  3127.8214
286  3140.8571
285.9  3137.1607
285.8  3132.4643
285.7  3146.9821
285.6  3142.875
285.5  3130.7321
285.4  3133.0893
285.3  3142.4643
285.2  3126.0893
285.1  3129.0714
285  3114.9107
284.9  3104.6607
284.8  3101.3929
284.7  3075.6607
284.6  3063.625
284.5  3052.4107
284.4  3032.9286
284.3  2997.0714
284.2  2957.3393
284.1  2946.625
284  2912.9643
283.9  2896.0893
283.8  2874.7321
283.7  2864.1607
283.6  2829.6429
283.5  2825.9821
283.4  2808.5536
283.3  2786.6786
283.2  2782.5893
283.1  2766.1786
283  2767.6607
282.9  2751.2679
282.8  2748.4821
282.7  2740.8214
282.6  2726.2143
282.5  2728
282.4  2729.3393
282.3  2711.5357
282.2  2708.4643
282.1  2704.4821
282  2736.7857
281.9  2702.5714
281.8  2705.9464
281.7  2708.9464
281.6  2691.0714
281.5  2698.9643
281.4  2705.8929
281.3  2693.4107
281.2  2696.0536
281.1  2693.8214
281  2695.5
280.9  2701.5
280.8  2692.125
280.7  2697.75
280.6  2682.8393
280.5  2689.8393
280.4  2692.1607
280.3  2685.125
280.2  2686.1786
280.1  2692.3036
280  2685.6429

# Region:            O 1s
# Acquisition Date:  05/22/21 07:27:56 UTC
# Analysis Method:   XPS
# Analyzer:          Phoibos 100 R6
# Analyzer Lens:     LargeArea:1.5kV
# Analyzer Slit:     1:0.2x20\B:open
# Scan Mode:         FixedAnalyzerTransmission
# Curves/Scan:       1
# Values/Curve:      351
# Dwell Time:        0.8
# Excitation Energy: 1486.61
# Binding Energy:    560
# Pass Energy:       30
# Bias Voltage:      90
# Detector Voltage:  2400
# Eff. Workfunction: 4.309
# Source:            X-Ray Dummy
# Comment:           
#
# Cycle: 0
# Number of Scans: 100
#
# Cycle: 0, Curve: 0
# Acquisition Date: 05/22/21 07:27:56 UTC
#
# ColumnLabels: energy counts/s
#
560  4917.7625
559.9  4896.9625
559.8  4928.0875
559.7  4901.2125
559.6  4897.9
559.5  4910.8625
559.4  4899.625
559.3  4913.9625
559.2  4918
559.1  4891.4625
559  4918.3875
558.9  4909.65
558.8  4887.3625
558.7  4899.4625
558.6  4915.5625
558.5  4908.175
558.4  4909.1
558.3  4886.9875
558.2  4903.375
558.1  4906.9875
558  4909.3
557.9  4902.4125
557.8  4906.7875
557.7  4898.4375
557.6  4902.4125
557.5  4906.55
557.4  4905.3375
557.3  4908.55
557.2  4909.075
557.1  4909.825
557  4912.6875
556.9  4904.1125
556.8  4909.0875
556.7  4922.525
556.6  4920.525
556.5  4906.175
556.4  4906.15
556.3  4903.0625
556.2  4930.4125
556.1  4926.3875
556  4912.75
555.9  4905.6875
555.8  4916.3125
555.7  4924.5875
555.6  4933.8125
555.5  4930.8125
555.4  4927.975
555.3  4917.45
555.2  4932.3875
555.1  4935.6125
555  4954.4625
554.9  4948.0125
554.8  4942.4125
554.7  4952.025
554.6  4946.8625
554.5  4952.2
554.4  4944.225
554.3  4943.775
554.2  4955.925
554.1  4965.3875
554  4956.875
553.9  4962.9125
553.8  4978.525
553.7  4977.9875
553.6  4989.5125
553.5  4993.7625
553.4  4993.3
553.3  4998.4
553.2  5009.9625
553.1  5021.175
553  5007.775
552.9  5014.15
552.8  5024.0625
552.7  5044.0375
552.6  5053.925
552.5  5049.3875
552.4  5062.2
552.3  5063.2
552.2  5090.5875
552.1  5086.95
552  5105.25
551.9  5113.8875
551.8  5120.35
551.7  5120.1375
551.6  5139.1625
551.5  5164.175
551.4  5161.6125
551.3  5176.7875
551.2  5194.1625
551.1  5211.4625
551  5230.325
550.9  5237.8125
550.8  5253.6
550.7  5277.4375
550.6  5298.7125
550.5  5316.3875
550.4  5320.4125
550.3  5350.3375
550.2  5351.175
550.1  5377.625
550  5408.7
549.9  5432.6625
549.8  5450.5
549.7  5491.6
549.6  5489.0375
549.5  5518.4
549.4  5558.8125
549.3  5589.6625
549.2  5620.8125
549.1  5642.3125
549  5660.45
548.9  5700.35
548.8  5740.2
548.7  5770.3875
548.6  5806.4125
548.5  5828.725
548.4  5872.8
548.3  5907.6125
548.2  5930.575
548.1  5946.725
548  5985.125
547.9  6013.0375
547.8  6041.9875
547.7  6058.6
547.6  6084.75
547.5  6107.2875
547.4  6145.2625
547.3  6157.2625
547.2  6174.05
547.1  6211.9625
547  6204.95
546.9  6198.175
546.8  6215.3625
546.7  6233.1625
546.6  6227.75
546.5  6220.85
546.4  6195.8125
546.3  6206.2625
546.2  6179.7625
546.1  6166.875
546  6149.5
545.9  6087.2375
545.8  6079.7
545.7  6058.3125
545.6  6023.275
545.5  5992.5
545.4  5959.2375
545.3  5926.1375
545.2  5874.5625
545.1  5818.25
545  5798.975
544.9  5769.125
544.8  5728.9
544.7  5666.4875
544.6  5655.05
544.5  5599.0125
544.4  5570.675
544.3  5523.125
544.2  5490.0125
544.1  5444.3125
544  5402.95
543.9  5388.225
543.8  5346.3375
543.7  5317.2375
543.6  5300.4125
543.5  5248.7125
543.4  5236.8375
543.3  5207.525
543.2  5163.5875
543.1  5146.6125
543  5126.2375
542.9  5097.575
542.8  5072.225
542.7  5051.65
542.6  5030.0125
542.5  5004.1
542.4  4978.7875
542.3  4966.375
542.2  4950.7125
542.1  4937.8875
542  4892.9
541.9  4902.9
541.8  4883.375
541.7  4862.5375
541.6  4842.6375
541.5  4833.2875
541.4  4829.7375
541.3  4813.275
541.2  4807.9
541.1  4775.0375
541  4779.4375
540.9  4753.2
540.8  4752.3
540.7  4747.875
540.6  4737.25
540.5  4723.7625
540.4  4724.5125
540.3  4712.725
540.2  4691.4125
540.1  4695.3625
540  4685.825
539.9  4683.8
539.8  4670.2125
539.7  4670.6375
539.6  4662.2375
539.5  4653.0625
539.4  4635.9875
539.3  4636.8375
539.2  4640.1875
539.1  4625.5875
539  4628.0125
538.9  4627.6625
538.8  4620.175
538.7  4621.4
538.6  4618.775
538.5  4616.15
538.4  4615.1
538.3  4604.625
538.2  4623.4125
538.1  4609.7375
538  4604.525
537.9  4620.7
537.8  4600.6875
537.7  4593.625
537.6  4596.875
537.5  4583.075
537.4  4585.1625
537.3  4593.5625
537.2  4600.675
537.1  4608.1
537  4599.6
536.9  4597.175
536.8  4588.15
536.7  4595.6625
536.6  4585.575
536.5  4580.875
536.4  4580.2875
536.3  4582.6375
536.2  4570.675
536.1  4575.5
536  4575.6875
535.9  4564.9375
535.8  4570.125
535.7  4559.6875
535.6  4564.6125
535.5  4566.775
535.4  4567.7875
535.3  4565.4
535.2  4559.8125
535.1  4572.5
535  4578.1
534.9  4584.1625
534.8  4587.45
534.7  4595.25
534.6  4622.1375
534.5  4649
534.4  4642.4875
534.3  4669.85
534.2  4677.5875
534.1  4714.175
534  4726.2
533.9  4759.1875
533.8  4782.075
533.7  4794.475
533.6  4810.6125
533.5  4828.75
533.4  4839.1375
533.3  4838.9
533.2  4833.1
533.1  4842.925
533  4836.4625
532.9  4813.8625
532.8  4793.9
532.7  4780.725
532.6  4753
532.5  4737.55
532.4  4705.2875
532.3  4664.025
532.2  4645.325
532.1  4639.05
532  4599.2375
531.9  4589.9625
531.8  4569.15
531.7  4550.25
531.6  4551.9875
531.5  4532.4125
531.4  4523.875
531.3  4515.5125
531.2  4500.2625
531.1  4510.325
531  4500.8875
530.9  4462.85
530.8  4462.35
530.7  4448.2625
530.6  4432.8875
530.5  4422.875
530.4  4407.0375
530.3  4395.975
530.2  4395.4
530.1  4374.4875
530  4365.8375
529.9  4349.85
529.8  4350.2
529.7  4324.2
529.6  4338.6125
529.5  4323.3875
529.4  4331.55
529.3  4303.4125
529.2  4311.1875
529.1  4307.5375
529  4294.9875
528.9  4295.85
528.8  4283.8375
528.7  4291.0125
528.6  4300.075
528.5  4294.575
528.4  4293.125
528.3  4288.3125
528.2  4283.0125
528.1  4277.675
528  4275.05
527.9  4296.9875
527.8  4280.125
527.7  4293.5625
527.6  4286.225
527.5  4271.6125
527.4  4279.6
527.3  4281.6625
527.2  4269.2375
527.1  4287.275
527  4270.7
526.9  4267.55
526.8  4270.0625
526.7  4270.9375
526.6  4272.725
526.5  4274.2375
526.4  4271.825
526.3  4264.8125
526.2  4271.225
526.1  4261.975
526  4270.2875
525.9  4268.4625
525.8  4280.9125
525.7  4253.95
525.6  4264.05
525.5  4276.5125
525.4  4275.0125
525.3  4253.25
525.2  4272.8
525.1  4272.65
525  4257.1625

# Region:            overview
# Acquisition Date:  05/21/21 18:50:23 UTC
# Analysis Method:   XPS
# Analyzer:          Phoibos 100 R6
# Analyzer Lens:     MediumArea:1.5kV
# Analyzer Slit:     1:0.2x20\B:open
# Scan Mode:         FixedAnalyzerTransmission
# Curves/Scan:       1
# Values/Curve:      1205
# Dwell Time:        0.2
# Excitation Energy: 1486.61
# Binding Energy:    1200
# Pass Energy:       50
# Bias Voltage:      90
# Detector Voltage:  2400
# Eff. Workfunction: 4.309
# Source:            X-Ray Dummy
# Comment:           
#
# Cycle: 0
# Number of Scans: 1
#
# Cycle: 0, Curve: 0
# Acquisition Date: 05/21/21 18:50:23 UTC
#
# ColumnLabels: energy counts/s
#
1200  8370
1199  7830
1198  7570
1197  7740
1196  7465
1195  7795
1194  7950
1193  7400
1192  7670
1191  7520
1190  7520
1189  7605
1188  7520
1187  7680
1186  7410
1185  7330
1184  7445
1183  7775
1182  7395
1181  7295
1180  7690
1179  7405
1178  7770
1177  7395
1176  7130
1175  7375
1174  7520
1173  7245
1172  7375
1171  7290
1170  7080
1169  7165
1168  6930
1167  7115
1166  7135
1165  7005
1164  7205
1163  6655
1162  7320
1161  7255
1160  7095
1159  6855
1158  6970
1157  7220
1156  6810
1155  6705
1154  6860
1153  6800
1152  6675
1151  6955
1150  6925
1149  6890
1148  6945
1147  6575
1146  6575
1145  6810
1144  6555
1143  6520
1142  6740
1141  6465
1140  6565
1139  6650
1138  6020
1137  6360
1136  6490
1135  6695
1134  6835
1133  6475
1132  6115
1131  6305
1130  6245
1129  6275
1128  6400
1127  6415
1126  6255
1125  6055
1124  6370
1123  6090
1122  6280
1121  6310
1120  6240
1119  6345
1118  6105
1117  6275
1116  5785
1115  6160
1114  6240
1113  5940
1112  6260
1111  6060
1110  5850
1109  5810
1108  5695
1107  6030
1106  5725
1105  5755
1104  5820
1103  5875
1102  5855
1101  5845
1100  5930
1099  5825
1098  6060
1097  6240
1096  5920
1095  5905
1094  5860
1093  5940
1092  5645
1091  5770
1090  5640
1089  5710
1088  5895
1087  5810
1086  5430
1085  5605
1084  5640
1083  5285
1082  5530
1081  5650
1080  5375
1079  5675
1078  5675
1077  5920
1076  5540
1075  5360
1074  5365
1073  5515
1072  5580
1071  5340
1070  5465
1069  5385
1068  5415
1067  5565
1066  5195
1065  5265
1064  5340
1063  5075
1062  4875
1061  5590
1060  5570
1059  5505
1058  5195
1057  5525
1056  5120
1055  5525
1054  5370
1053  5175
1052  5105
1051  5470
1050  5255
1049  4920
1048  5435
1047  5170
1046  5495
1045  5210
1044  4970
1043  5320
1042  4855
1041  5220
1040  5180
1039  5125
1038  5260
1037  5220
1036  4935
1035  5080
1034  4825
1033  5155
1032  5235
1031  5030
1030  5290
1029  5155
1028  5195
1027  5055
1026  4805
1025  5160
1024  5055
1023  4850
1022  4860
1021  5055
1020  4930
1019  5025
1018  5145
1017  4600
1016  5020
1015  5010
1014  5015
1013  4850
1012  5300
1011  5060
1010  4935
1009  5075
1008  4965
1007  5020
1006  4755
1005  5110
1004  5020
1003  4615
1002  4920
1001  5005
1000  4585
999  4995
998  4785
997  4710
996  4540
995  4800
994  4820
993  4870
992  5005
991  4830
990  4670
989  4895
988  5080
987  5160
986  4930
985  4790
984  4805
983  4650
982  4920
981  4940
980  4840
979  4835
978  4740
977  4835
976  4780
975  4885
974  4740
973  5000
972  4790
971  4945
970  4760
969  4855
968  4685
967  4910
966  4915
965  4990
964  4845
963  4660
962  4765
961  4955
960  5065
959  4445
958  4820
957  4945
956  4720
955  4495
954  4550
953  4760
952  5180
951  4850
950  4755
949  4565
948  4745
947  4680
946  4635
945  4730
944  4970
943  4575
942  4625
941  4550
940  4710
939  4595
938  4705
937  4495
936  4810
935  4680
934  4420
933  4580
932  4850
931  4720
930  4725
929  4670
928  4910
927  4560
926  4665
925  4625
924  4605
923  4485
922  4690
921  4465
920  4390
919  4505
918  4790
917  4515
916  4700
915  4515
914  4875
913  4760
912  4630
911  4845
910  4585
909  4545
908  4500
907  4495
906  4610
905  4675
904  4570
903  4750
902  4700
901  4585
900  4725
899  4550
898  4845
897  4450
896  4540
895  4495
894  4830
893  4550
892  4680
891  4380
890  4620
889  4655
888  4630
887  4440
886  4635
885  4820
884  4660
883  4755
882  4680
881  4635
880  4625
879  4565
878  4465
877  4785
876  4590
875  4630
874  4570
873  4525
872  4695
871  4915
870  4655
869  4940
868  4720
867  4680
866  4860
865  4715
864  4730
863  4470
862  4410
861  4300
860  4835
859  4335
858  4525
857  4315
856  4755
855  4665
854  4755
853  4940
852  4455
851  4710
850  4640
849  4615
848  4645
847  4490
846  5015
845  4775
844  4795
843  4185
842  4555
841  4620
840  4560
839  4750
838  4825
837  4745
836  4865
835  4720
834  4685
833  4615
832  5085
831  4815
830  4385
829  4790
828  4540
827  4835
826  4675
825  4980
824  4630
823  4715
822  4850
821  4595
820  4595
819  4650
818  4780
817  4750
816  4810
815  4855
814  4735
813  4800
812  4555
811  4480
810  4970
809  4830
808  5145
807  5130
806  4805
805  4470
804  4985
803  4985
802  4910
801  4630
800  4925
799  4910
798  5095
797  4865
796  4925
795  4925
794  4600
793  5050
792  5090
791  4825
790  4560
789  4740
788  4915
787  4760
786  4905
785  4790
784  4865
783  4990
782  4665
781  4660
780  4770
779  4735
778  4895
777  4785
776  5130
775  4835
774  4865
773  5030
772  5165
771  4780
770  4845
769  5150
768  4890
767  4880
766  5265
765  5100
764  5380
763  5275
762  5040
761  5265
760  5035
759  5135
758  5100
757  4955
756  4795
755  4865
754  4910
753  4815
752  4815
751  4835
750  4820
749  4710
748  4660
747  4815
746  4825
745  4770
744  4720
743  4985
742  4715
741  4690
740  4945
739  4825
738  4655
737  5025
736  4770
735  4600
734  4850
733  4925
732  5145
731  4900
730  4655
729  4910
728  4795
727  4955
726  4805
725  4890
724  4680
723  4925
722  4860
721  4880
720  4770
719  4895
718  4785
717  4870
716  5010
715  5035
714  4900
713  5030
712  5140
711  5070
710  5120
709  4720
708  4835
707  4930
706  5125
705  5155
704  5125
703  4595
702  4945
701  4755
700  5030
699  4910
698  5150
697  5050
696  5125
695  4770
694  4850
693  4985
692  4575
691  5070
690  4945
689  5085
688  5190
687  4830
686  5220
685  5080
684  4980
683  5140
682  5220
681  4930
680  5295
679  5175
678  5285
677  5170
676  4980
675  5145
674  5130
673  5075
672  5010
671  4990
670  4790
669  4965
668  5050
667  4950
666  4885
665  5170
664  5355
663  5090
662  5035
661  4965
660  4865
659  5045
658  5475
657  5080
656  5010
655  5180
654  5245
653  4885
652  5165
651  5455
650  5205
649  5205
648  5000
647  5485
646  5435
645  5570
644  5600
643  5445
642  5900
641  5455
640  5330
639  5030
638  5120
637  5180
636  5080
635  5155
634  5150
633  5250
632  5105
631  5300
630  5565
629  5140
628  5215
627  5185
626  5275
625  5225
624  5175
623  5165
622  5150
621  5260
620  5235
619  5065
618  5010
617  5140
616  5260
615  5295
614  5265
613  5370
612  5080
611  5635
610  5210
609  5355
608  5440
607  4910
606  5420
605  5500
604  5345
603  5220
602  5420
601  5435
600  5375
599  5375
598  5225
597  5435
596  5245
595  5290
594  5370
593  5380
592  5445
591  5380
590  5535
589  5125
588  5415
587  5425
586  5355
585  5275
584  5770
583  5695
582  5545
581  5555
580  5395
579  5645
578  5560
577  5675
576  5685
575  5540
574  5775
573  5760
572  5665
571  5750
570  5985
569  5745
568  5635
567  5710
566  5565
565  5725
564  5765
563  5935
562  5660
561  6000
560  5690
559  5835
558  5325
557  5430
556  6235
555  5915
554  5725
553  5890
552  5860
551  6005
550  6575
549  6510
548  6965
547  7175
546  7260
545  6730
544  6530
543  5915
542  5755
541  5625
540  5675
539  5340
538  5390
537  5375
536  5495
535  5250
534  5695
533  5540
532  5565
531  5035
530  5065
529  5535
528  5255
527  5145
526  5140
525  5095
524  5145
523  4935
522  5180
521  5220
520  5000
519  4990
518  5215
517  5165
516  5080
515  5010
514  5140
