# Created by:        SpecsLab Prodigy, Version 4.60.2-r85849 
#
# XY-Serializer Export Settings:
#   Comment Prefix:           #
#   Output meta data:         yes
#   Energy Axis:              Binding Energy
#   Count Rate:               Counts per Second
#   Separate Scan Data:       no
#   Separate Channel Data:    no
#   External Channel Data:    yes
#   Transmission Function:    no
#   ErrorBar:                 no
#   Operation Results:        yes
#   Time Zone Format:         UTC
#
# Group:             20210507_Au111_clean
#
# Region:            N 1s
# Acquisition Date:  05/22/21 18:44:40 UTC
# Analysis Method:   XPS
# Analyzer:          Phoibos 100 R6
# Analyzer Lens:     LargeArea:1.5kV
# Analyzer Slit:     1:0.2x20\B:open
# Scan Mode:         FixedAnalyzerTransmission
# Curves/Scan:       1
# Values/Curve:      101
# Dwell Time:        0.8
# Excitation Energy: 1486.61
# Binding Energy:    405
# Pass Energy:       30
# Bias Voltage:      90
# Detector Voltage:  2400
# Eff. Workfunction: 4.309
# Source:            X-Ray Dummy
# Comment:           
#
# Cycle: 0
# Number of Scans: 70
#
# Cycle: 0, Curve: 0
# Acquisition Date: 05/22/21 18:44:40 UTC
#
# ColumnLabels: energy counts/s
#
405  4433.5179
404.9  4411.0179
404.8  4423.2143
404.7  4420.3393
404.6  4430.625
404.5  4424.375
404.4  4421.9821
404.3  4435.8929
404.2  4430.3036
404.1  4439.25
404  4436.0357
403.9  4448.7143
403.8  4423.4643
403.7  4432.3393
403.6  4438.5179
403.5  4447.0179
403.4  4450.5179
403.3  4456.3929
403.2  4453.8929
403.1  4457.1964
403  4459.4107
402.9  4465.8929
402.8  4459.9107
402.7  4476.0536
402.6  4490.3571
402.5  4462.4464
402.4  4482.9643
402.3  4494.8214
402.2  4503.3571
402.1  4508.6607
402  4503.1607
401.9  4494.9464
401.8  4497.3929
401.7  4517.4286
401.6  4526.0714
401.5  4537.5
401.4  4539.375
401.3  4517.0179
401.2  4519.75
401.1  4529.6786
401  4512.0536
400.9  4538.3929
400.8  4526.3571
400.7  4530.8929
400.6  4534.7679
400.5  4521.0179
400.4  4529.7857
400.3  4546.5714
400.2  4521.1786
400.1  4508.1429
400  4531.8036
399.9  4531.4464
399.8  4512.6071
399.7  4517.7857
399.6  4535.5714
399.5  4508.1964
399.4  4525.0179
399.3  4520.0714
399.2  4512.7857
399.1  4508.9286
399  4504.1429
398.9  4502.1786
398.8  4509.75
398.7  4485.3929
398.6  4487.4286
398.5  4488.9464
398.4  4490.9107
398.3  4480.3571
398.2  4470.7679
398.1  4481.875
398  4486.1071
397.9  4457.7857
397.8  4472.2321
397.7  4474.1786
397.6  4464.2143
397.5  4458.625
397.4  4460.5536
397.3  4474.0357
397.2  4457.5179
397.1  4454.1429
397  4465.9643
396.9  4456.8571
396.8  4460.3571
396.7  4461.3571
396.6  4473.8036
396.5  4463.4821
396.4  4455.5893
396.3  4467.7321
396.2  4474.5893
396.1  4467.4464
396  4465.2321
395.9  4470.7857
395.8  4479.7679
395.7  4474.8214
395.6  4492.8393
395.5  4478.9464
395.4  4484.6786
395.3  4487
395.2  4488.0714
395.1  4458.25
395  4475.125

# Region:            C 1s
# Acquisition Date:  05/22/21 13:02:05 UTC
# Analysis Method:   XPS
# Analyzer:          Phoibos 100 R6
# Analyzer Lens:     LargeArea:1.5kV
# Analyzer Slit:     1:0.2x20\B:open
# Scan Mode:         FixedAnalyzerTransmission
# Curves/Scan:       1
# Values/Curve:      151
# Dwell Time:        0.8
# Excitation Energy: 1486.61
# Binding Energy:    295
# Pass Energy:       30
# Bias Voltage:      90
# Detector Voltage:  2400
# Eff. Workfunction: 4.309
# Source:            X-Ray Dummy
# Comment:           
#
# Cycle: 0
# Number of Scans: 10
#
# Cycle: 0, Curve: 0
# Acquisition Date: 05/22/21 13:02:05 UTC
#
# ColumnLabels: energy counts/s
#
295  2552.75
294.9  2562.625
294.8  2627.25
294.7  2577.125
294.6  2559.875
294.5  2581.75
294.4  2616.5
294.3  2547.875
294.2  2577.5
294.1  2588.125
294  2576.375
293.9  2608.75
293.8  2597.125
293.7  2573.75
293.6  2581.5
293.5  2587.375
293.4  2579.625
293.3  2562.5
293.2  2601.875
293.1  2554.375
293  2611.875
292.9  2590.125
292.8  2561.125
292.7  2612.25
292.6  2580.5
292.5  2600.75
292.4  2605
292.3  2584.625
292.2  2615.25
292.1  2576.25
292  2597.75
291.9  2604.375
291.8  2583.875
291.7  2586.125
291.6  2605.25
291.5  2593.875
291.4  2588.875
291.3  2620
291.2  2609.625
291.1  2610.5
291  2637.375
290.9  2643.25
290.8  2615.75
290.7  2610.125
290.6  2633.875
290.5  2645.5
290.4  2601
290.3  2619
290.2  2602.5
290.1  2631.75
290  2631.625
289.9  2619
289.8  2599.875
289.7  2605.25
289.6  2623.75
289.5  2613.25
289.4  2669.125
289.3  2635.75
289.2  2659.625
289.1  2651.125
289  2655.875
288.9  2659.75
288.8  2682.875
288.7  2662.375
288.6  2672.75
288.5  2692.875
288.4  2699.75
288.3  2706.75
288.2  2781.5
288.1  2754.75
288  2768.625
287.9  2837.375
287.8  2836.25
287.7  2819.75
287.6  2864.5
287.5  2869.875
287.4  2903.125
287.3  2876.25
287.2  2948.875
287.1  2921
287  2987.375
286.9  2947
286.8  2985.375
286.7  3023.25
286.6  2998.625
286.5  3002.5
286.4  3000.125
286.3  2999.5
286.2  2990.25
286.1  3039.75
286  2996.125
285.9  3033.125
285.8  3052
285.7  3046.125
285.6  3011.625
285.5  2980.75
285.4  2997.375
285.3  2977.5
285.2  2989.5
285.1  2961.25
285  2958
284.9  2953.125
284.8  2890
284.7  2891.25
284.6  2889.375
284.5  2911.625
284.4  2833.75
284.3  2794
284.2  2813.25
284.1  2767.25
284  2727.5
283.9  2738.75
283.8  2695.125
283.7  2713
283.6  2690.625
283.5  2686.875
283.4  2671.875
283.3  2640.5
283.2  2640.375
283.1  2627.75
283  2638
282.9  2607.625
282.8  2653.625
282.7  2598.25
282.6  2584.875
282.5  2609.875
282.4  2622.5
282.3  2624
282.2  2598.25
282.1  2606.875
282  2595.75
281.9  2609.75
281.8  2566.75
281.7  2569.875
281.6  2591.125
281.5  2609.625
281.4  2557
281.3  2556.875
281.2  2555.875
281.1  2581
281  2586
280.9  2591.875
280.8  2568
280.7  2587.5
280.6  2588.125
280.5  2573.25
280.4  2568.875
280.3  2602.75
280.2  2577.25
280.1  2588.125
280  2565.875

# Region:            O 1s
# Acquisition Date:  05/22/21 17:57:41 UTC
# Analysis Method:   XPS
# Analyzer:          Phoibos 100 R6
# Analyzer Lens:     LargeArea:1.5kV
# Analyzer Slit:     1:0.2x20\B:open
# Scan Mode:         FixedAnalyzerTransmission
# Curves/Scan:       1
# Values/Curve:      351
# Dwell Time:        0.8
# Excitation Energy: 1486.61
# Binding Energy:    560
# Pass Energy:       30
# Bias Voltage:      90
# Detector Voltage:  2400
# Eff. Workfunction: 4.309
# Source:            X-Ray Dummy
# Comment:           
#
# Cycle: 0
# Number of Scans: 55
#
# Cycle: 0, Curve: 0
# Acquisition Date: 05/22/21 17:57:41 UTC
#
# ColumnLabels: energy counts/s
#
560  4689.1136
559.9  4682.4545
559.8  4674.1136
559.7  4675.3636
559.6  4688.2727
559.5  4695.3182
559.4  4675.9545
559.3  4687.6364
559.2  4664.8636
559.1  4684.7727
559  4684.1364
558.9  4672.2955
558.8  4663.1364
558.7  4673.0455
558.6  4680.0682
558.5  4668.2955
558.4  4681.1818
558.3  4676.6136
558.2  4685.1136
558.1  4656.3636
558  4681.2727
557.9  4698.9545
557.8  4666.2045
557.7  4693.6818
557.6  4679.4091
557.5  4699.2955
557.4  4675.3409
557.3  4688.7045
557.2  4678.0682
557.1  4660.0227
557  4684.3864
556.9  4687.6136
556.8  4687.5
556.7  4700.1136
556.6  4695.0682
556.5  4686.3182
556.4  4674.8182
556.3  4685.4773
556.2  4676.6818
556.1  4677.4318
556  4684.3864
555.9  4709.5455
555.8  4702.5227
555.7  4703
555.6  4708.25
555.5  4703.2045
555.4  4690.9773
555.3  4705.1591
555.2  4709.7273
555.1  4698.8864
555  4714.2955
554.9  4707.0455
554.8  4707.0909
554.7  4722.3864
554.6  4716.3182
554.5  4724
554.4  4754.25
554.3  4716.1136
554.2  4740.5
554.1  4732.9773
554  4731.7273
553.9  4747.4318
553.8  4742.6591
553.7  4768.1136
553.6  4776
553.5  4761.6818
553.4  4762.1591
553.3  4768.7273
553.2  4797.5909
553.1  4792.7955
553  4793.3636
552.9  4791.1364
552.8  4792.1136
552.7  4821.2045
552.6  4799.7955
552.5  4839.5
552.4  4826.3636
552.3  4852.9545
552.2  4851.0909
552.1  4848.4545
552  4853.3409
551.9  4873.7955
551.8  4897.3864
551.7  4903.4545
551.6  4903.8636
551.5  4918.4773
551.4  4946.2273
551.3  4952.3636
551.2  4987.6136
551.1  4970.2045
551  5005.3636
550.9  5018.2955
550.8  5032.75
550.7  5021.5909
550.6  5052.4545
550.5  5073.0227
550.4  5107.7045
550.3  5123.7955
550.2  5144.5682
550.1  5147.7045
550  5167.6591
549.9  5171
549.8  5224.4773
549.7  5265.6136
549.6  5260.3182
549.5  5282.3182
549.4  5327.7727
549.3  5334.7045
549.2  5357.2273
549.1  5378.8409
549  5435.7955
548.9  5468.7045
548.8  5485.5227
548.7  5504.8864
548.6  5554
548.5  5573.1591
548.4  5595.5682
548.3  5633.9773
548.2  5661.7273
548.1  5692.1136
548  5707.8864
547.9  5764.4545
547.8  5774.1136
547.7  5805.8864
547.6  5846.7955
547.5  5879.7045
547.4  5896.9318
547.3  5862.6364
547.2  5904.7045
547.1  5938.3409
547  5934.4318
546.9  5946.8864
546.8  5967.0909
546.7  5953.1136
546.6  5947.0455
546.5  5956.1591
546.4  5956.5
546.3  5925.2955
546.2  5909.0682
546.1  5892.0682
546  5868.1364
545.9  5842.9318
545.8  5832.2045
545.7  5788.4318
545.6  5764.5455
545.5  5720.25
545.4  5706.1364
545.3  5649.0909
545.2  5631.3409
545.1  5595.5
545  5550.8864
544.9  5533.2955
544.8  5487.1591
544.7  5460.0909
544.6  5398.2045
544.5  5351.0682
544.4  5329.9318
544.3  5272.9545
544.2  5250.5227
544.1  5227.5
544  5185.75
543.9  5148.8182
543.8  5121.3409
543.7  5070.1136
543.6  5071.8864
543.5  5029.5682
543.4  4986.5455
543.3  4965.4773
543.2  4944.2955
543.1  4905.8636
543  4914.9545
542.9  4873.4091
542.8  4835
542.7  4830.0682
542.6  4796.2955
542.5  4792.2045
542.4  4755.0227
542.3  4753.9773
542.2  4743.3636
542.1  4720.4545
542  4706.6136
541.9  4689.0909
541.8  4674.4545
541.7  4669.7273
541.6  4634
541.5  4620
541.4  4602.3409
541.3  4598.8864
541.2  4585.5682
541.1  4563.4773
541  4559.0455
540.9  4545.2045
540.8  4553.2955
540.7  4536.8636
540.6  4506.9773
540.5  4523.5227
540.4  4518.3182
540.3  4496.1818
540.2  4478.4773
540.1  4467.3182
540  4474.8409
539.9  4464.1591
539.8  4464.6591
539.7  4467.3636
539.6  4454.0909
539.5  4436.1591
539.4  4444.2045
539.3  4430.5909
539.2  4440.9091
539.1  4428.6136
539  4409.9545
538.9  4416.0682
538.8  4408.6591
538.7  4418.1364
538.6  4426.6818
538.5  4419.5455
538.4  4402.7045
538.3  4393.7955
538.2  4406.4773
538.1  4395.5909
538  4408.6136
537.9  4405.2045
537.8  4396.5682
537.7  4401.0682
537.6  4389.2273
537.5  4389.7955
537.4  4399.6364
537.3  4385
537.2  4403
537.1  4383.3409
537  4394.2045
536.9  4363.5227
536.8  4382.7955
536.7  4383.5455
536.6  4383.4318
536.5  4368.5
536.4  4379.2273
536.3  4378.5909
536.2  4354.3182
536.1  4362.5909
536  4377.0909
535.9  4381.3182
535.8  4380.9318
535.7  4357.2955
535.6  4360.25
535.5  4366.1818
535.4  4366.2727
535.3  4366.8182
535.2  4376.75
535.1  4386.0227
535  4405.9773
534.9  4409.7955
534.8  4418.9545
534.7  4424.9545
534.6  4442.9773
534.5  4470.6818
534.4  4478.3636
534.3  4499.6591
534.2  4517.3409
534.1  4542.7955
534  4553.4545
533.9  4576.4545
533.8  4587.1818
533.7  4601.1591
533.6  4594.4545
533.5  4586.6364
533.4  4605.3636
533.3  4594.1364
533.2  4582.0455
533.1  4593.0682
533  4560.4318
532.9  4542.75
532.8  4515.7273
532.7  4486.7273
532.6  4486.3182
532.5  4443.2727
532.4  4412.6591
532.3  4411.7955
532.2  4397.3864
532.1  4366.4773
532  4356.5
531.9  4352.4773
531.8  4333.3182
531.7  4327.2727
531.6  4316.4091
531.5  4304.6136
531.4  4311.7273
531.3  4278.1364
531.2  4279.5682
531.1  4266.7273
531  4269.2727
530.9  4258.8409
530.8  4234.5909
530.7  4243
530.6  4202.1364
530.5  4214
530.4  4216.1136
530.3  4210.25
530.2  4177.0227
530.1  4164.25
530  4168.75
529.9  4154.5682
529.8  4150.3864
529.7  4126.1136
529.6  4134.4545
529.5  4115.3864
529.4  4139.6364
529.3  4106.25
529.2  4127.8182
529.1  4122.8636
529  4105.5455
528.9  4102.7955
528.8  4090.1591
528.7  4111.25
528.6  4109.0455
528.5  4091.3409
528.4  4095.0227
528.3  4079.6136
528.2  4092.4545
528.1  4089.7727
528  4097.6364
527.9  4093.6136
527.8  4087
527.7  4084.5455
527.6  4085.3636
527.5  4062.0909
527.4  4101.1591
527.3  4100.8182
527.2  4080.3182
527.1  4079.7727
527  4066.5455
526.9  4089.5682
526.8  4074.2273
526.7  4078.6364
526.6  4090.9091
526.5  4064.7273
526.4  4074.8636
526.3  4072.6136
526.2  4086.6818
526.1  4075.1136
526  4051.3182
525.9  4072.2955
525.8  4073.0682
525.7  4082.1818
525.6  4071.0909
525.5  4072
525.4  4078.4773
525.3  4062.2273
525.2  4077.9773
525.1  4061.8636
525  4055.4318

# Region:            Ba 3d
# Acquisition Date:  05/22/21 18:45:47 UTC
# Analysis Method:   XPS
# Analyzer:          Phoibos 100 R6
# Analyzer Lens:     LargeArea:1.5kV
# Analyzer Slit:     1:0.2x20\B:open
# Scan Mode:         FixedAnalyzerTransmission
# Curves/Scan:       1
# Values/Curve:      81
# Dwell Time:        0.8
# Excitation Energy: 1486.61
# Binding Energy:    784
# Pass Energy:       30
# Bias Voltage:      90
# Detector Voltage:  2400
# Eff. Workfunction: 4.309
# Source:            X-Ray Dummy
# Comment:           
#
# Cycle: 0
# Number of Scans: 40
#
# Cycle: 0, Curve: 0
# Acquisition Date: 05/22/21 18:45:47 UTC
#
# ColumnLabels: energy counts/s
#
784  5378.8125
783.9  5341.0938
783.8  5342.3438
783.7  5352.4375
783.6  5359.5313
783.5  5365.4375
783.4  5362.125
783.3  5370.75
783.2  5370.5
783.1  5358.8125
783  5381.3438
782.9  5370.9375
782.8  5381.5938
782.7  5355.4063
782.6  5365.8438
782.5  5408.9375
782.4  5362.125
782.3  5388.0938
782.2  5357.625
782.1  5382.625
782  5397.125
781.9  5388.0938
781.8  5382.7188
781.7  5418.375
781.6  5404.2188
781.5  5399.4688
781.4  5401.7188
781.3  5420.0938
781.2  5407.0313
781.1  5397.9688
781  5415.125
780.9  5413.4375
780.8  5414.125
780.7  5422.9063
780.6  5388.5313
780.5  5395.0625
780.4  5382.6875
780.3  5399.7188
780.2  5398.4063
780.1  5351
780  5376.125
779.9  5360.8125
779.8  5376
779.7  5384.9063
779.6  5331.875
779.5  5364.6875
779.4  5362.5313
779.3  5328.4063
779.2  5331.4688
779.1  5324.5313
779  5331.5
778.9  5368.7813
778.8  5331.1563
778.7  5316.6875
778.6  5332.125
778.5  5335.25
778.4  5334.3125
778.3  5336.0938
778.2  5295.5938
778.1  5337.7188
778  5322.0938
777.9  5345.375
777.8  5334.0313
777.7  5341.875
777.6  5321.5
777.5  5322.7813
777.4  5340.1875
777.3  5320.4063
777.2  5322.375
777.1  5329.6563
777  5319.5313
776.9  5303.9375
776.8  5318.5938
776.7  5332.0625
776.6  5321
776.5  5324.875
776.4  5319.5313
776.3  5305.125
776.2  5293.5
776.1  5320.6563
776  5301.9063

# Region:            overview
# Acquisition Date:  05/22/21 11:28:59 UTC
# Analysis Method:   XPS
# Analyzer:          Phoibos 100 R6
# Analyzer Lens:     MediumArea:1.5kV
# Analyzer Slit:     1:0.2x20\B:open
# Scan Mode:         FixedAnalyzerTransmission
# Curves/Scan:       1
# Values/Curve:      1205
# Dwell Time:        0.2
# Excitation Energy: 1486.61
# Binding Energy:    1200
# Pass Energy:       50
# Bias Voltage:      90
# Detector Voltage:  2400
# Eff. Workfunction: 4.309
# Source:            X-Ray Dummy
# Comment:           
#
# Cycle: 0
# Number of Scans: 1
#
# Cycle: 0, Curve: 0
# Acquisition Date: 05/22/21 11:28:59 UTC
#
# ColumnLabels: energy counts/s
#
1200  7610
1199  6665
1198  7580
1197  7305
1196  7485
1195  7275
1194  7130
1193  7455
1192  6830
1191  6765
1190  7290
1189  7230
1188  7150
1187  7280
1186  6985
1185  7075
1184  6760
1183  7280
1182  6940
1181  6820
1180  7180
1179  6870
1178  6655
1177  6840
1176  6780
1175  6775
1174  7065
1173  7040
1172  6910
1171  7170
1170  6590
1169  6875
1168  6975
1167  6745
1166  6705
1165  6885
1164  7055
1163  7055
1162  6910
1161  6770
1160  6705
1159  6465
1158  6265
1157  6980
1156  6645
1155  6470
1154  6205
1153  6315
1152  6410
1151  6440
1150  6425
1149  6300
1148  5890
1147  6030
1146  6270
1145  6465
1144  6560
1143  6380
1142  6115
1141  6125
1140  6195
1139  6220
1138  6335
1137  6315
1136  6225
1135  6020
1134  5990
1133  6005
1132  6295
1131  6335
1130  5800
1129  6065
1128  5810
1127  5795
1126  5940
1125  5885
1124  6280
1123  5955
1122  5735
1121  5790
1120  5930
1119  5880
1118  5780
1117  5745
1116  5620
1115  6055
1114  5750
1113  5875
1112  5805
1111  5695
1110  5615
1109  5605
1108  5515
1107  5795
1106  5525
1105  6000
1104  5665
1103  5695
1102  5400
1101  5605
1100  5785
1099  5545
1098  5525
1097  5510
1096  5675
1095  5640
1094  5720
1093  5045
1092  5635
1091  5480
1090  5360
1089  5490
1088  5490
1087  5335
1086  5480
1085  5355
1084  5135
1083  5270
1082  5055
1081  5480
1080  4875
1079  5220
1078  5510
1077  5015
1076  5190
1075  5450
1074  5315
1073  5175
1072  4995
1071  5065
1070  5060
1069  5170
1068  4970
1067  5440
1066  4980
1065  4825
1064  5325
1063  4905
1062  5040
1061  4905
1060  5150
1059  5045
1058  5125
1057  4905
1056  4970
1055  5110
1054  4765
1053  5195
1052  5075
1051  5155
1050  4810
1049  4785
1048  5070
1047  4740
1046  5030
1045  4890
1044  4965
1043  4730
1042  4910
1041  4960
1040  4520
1039  4890
1038  4630
1037  4990
1036  5045
1035  4535
1034  5130
1033  4630
1032  4560
1031  5080
1030  4680
1029  4890
1028  4815
1027  4630
1026  4690
1025  4940
1024  4695
1023  4675
1022  4885
1021  4825
1020  4945
1019  4725
1018  4610
1017  4530
1016  4815
1015  4810
1014  4500
1013  4805
1012  4835
1011  4610
1010  4730
1009  4775
1008  4675
1007  4660
1006  4745
1005  4550
1004  4890
1003  4775
1002  4930
1001  4205
1000  4495
999  4495
998  4765
997  4640
996  4855
995  4655
994  4520
993  4415
992  4400
991  4805
990  4395
989  4615
988  4505
987  4640
986  4630
985  4415
984  4530
983  4590
982  4450
981  4635
980  4765
979  4500
978  4435
977  4730
976  4355
975  4765
974  4610
973  4560
972  4575
971  4455
970  4320
969  4385
968  4270
967  4520
966  4500
965  4340
964  4395
963  4555
962  4600
961  4245
960  4355
959  4505
958  4330
957  4275
956  4790
955  4390
954  4245
953  4540
952  4180
951  4245
950  4375
949  4420
948  4130
947  4505
946  4615
945  4385
944  4405
943  4675
942  4505
941  4245
940  4460
939  4755
938  4700
937  4585
936  4380
935  4790
934  4245
933  4360
932  4220
931  4235
930  4655
929  4425
928  4570
927  4285
926  4185
925  4135
924  4330
923  4550
922  4400
921  4340
920  4555
919  4190
918  4295
917  4510
916  4255
915  4650
914  4490
913  4615
912  4790
911  4420
910  4380
909  4480
908  4285
907  4400
906  4405
905  4560
904  4320
903  4315
902  4415
901  4140
900  4245
899  4470
898  4375
897  4395
896  4430
895  4430
894  4725
893  4215
892  4475
891  4360
890  4355
889  4365
888  4425
887  4410
886  4345
885  4340
884  4240
883  4315
882  4480
881  4315
880  4470
879  4400
878  4415
877  4375
876  4305
875  4450
874  4560
873  4480
872  4450
871  4485
870  4330
869  4490
868  4345
867  4395
866  4210
865  4375
864  4230
863  4180
862  4485
861  4675
860  4555
859  4270
858  4250
857  4280
856  4090
855  4305
854  4220
853  4430
852  4495
851  4425
850  4315
849  4350
848  4450
847  4525
846  4570
845  4385
844  4615
843  4215
842  4400
841  4190
840  4550
839  4590
838  4510
837  4520
836  4495
835  4400
834  4445
833  4540
832  4425
831  4530
830  4575
829  4350
828  4465
827  4540
826  4190
825  4290
824  4355
823  4380
822  4755
821  4240
820  4415
819  4465
818  4700
817  4625
816  4425
815  4395
814  4740
813  4625
812  4530
811  4565
810  4475
809  4525
808  4490
807  4315
806  4510
805  4320
804  4530
803  4690
802  4405
801  4360
800  4750
799  4560
798  4805
797  4740
796  4790
795  4440
794  4790
793  4815
792  4565
791  4670
790  4495
789  4885
788  4760
787  4420
786  4500
785  4915
784  4695
783  4565
782  4295
781  4600
780  4875
779  4535
778  4760
777  4830
776  4575
775  4825
774  4415
773  4790
772  4450
771  4910
770  4545
769  4555
768  4750
767  4645
766  4710
765  4765
764  4825
763  4535
762  4840
761  4905
760  4710
759  4700
758  4725
757  4765
756  4495
755  4500
754  4655
753  4595
752  4580
751  4650
750  4390
749  4760
748  4345
747  4355
746  4600
745  4545
744  4785
743  4655
742  4715
741  4645
740  4655
739  4360
738  4445
737  4620
736  4365
735  4445
734  4665
733  4585
732  4610
731  4700
730  4575
729  4370
728  4785
727  4430
726  4395
725  4635
724  4710
723  4510
722  4295
721  4445
720  4465
719  4740
718  4680
717  4475
716  4645
715  4760
714  4625
713  4760
712  4875
711  4660
710  4620
