# Created by:        SpecsLab Prodigy, Version 4.60.2-r85849 
#
# XY-Serializer Export Settings:
#   Comment Prefix:           #
#   Output meta data:         yes
#   Energy Axis:              Binding Energy
#   Count Rate:               Counts per Second
#   Separate Scan Data:       no
#   Separate Channel Data:    no
#   External Channel Data:    yes
#   Transmission Function:    no
#   ErrorBar:                 no
#   Operation Results:        yes
#   Time Zone Format:         UTC
#
# Group:             20210507_Au111_clean
#
# Region:            Ba 3d
# Acquisition Date:  05/24/21 14:59:49 UTC
# Analysis Method:   XPS
# Analyzer:          Phoibos 100 R6
# Analyzer Lens:     LargeArea:1.5kV
# Analyzer Slit:     1:0.2x20\B:open
# Scan Mode:         FixedAnalyzerTransmission
# Curves/Scan:       1
# Values/Curve:      81
# Dwell Time:        0.8
# Excitation Energy: 1486.61
# Binding Energy:    784
# Pass Energy:       30
# Bias Voltage:      90
# Detector Voltage:  2400
# Eff. Workfunction: 4.309
# Source:            X-Ray Dummy
# Comment:           
#
# Cycle: 0
# Number of Scans: 40
#
# Cycle: 0, Curve: 0
# Acquisition Date: 05/24/21 14:59:49 UTC
#
# ColumnLabels: energy counts/s
#
784  5157.25
783.9  5172.75
783.8  5165.9688
783.7  5169.8125
783.6  5149.4688
783.5  5156.9688
783.4  5143.8438
783.3  5155.125
783.2  5170.0938
783.1  5185.4063
783  5173.5625
782.9  5177.625
782.8  5166.125
782.7  5187.5938
782.6  5191.5
782.5  5193.5313
782.4  5215.8125
782.3  5220.625
782.2  5234.5625
782.1  5237.7813
782  5277.0938
781.9  5289.8125
781.8  5284.0313
781.7  5320.9375
781.6  5311.4375
781.5  5314.6563
781.4  5352.25
781.3  5327.3125
781.2  5359.75
781.1  5343.1563
781  5365.0313
780.9  5334.625
780.8  5349.6875
780.7  5350.9688
780.6  5346.4688
780.5  5302.6563
780.4  5285.1875
780.3  5285.7188
780.2  5270.25
780.1  5243.0625
780  5240.9688
779.9  5214.2813
779.8  5216.2813
779.7  5199.5625
779.6  5197.5
779.5  5179.6875
779.4  5170.6563
779.3  5164.2188
779.2  5151
779.1  5159.1563
779  5131.625
778.9  5140.4375
778.8  5112.0938
778.7  5109.9063
778.6  5094.8125
778.5  5115.9375
778.4  5112.8438
778.3  5073.5625
778.2  5110.9375
778.1  5118.2188
778  5098.8438
777.9  5122.3438
777.8  5093.3438
777.7  5107.7813
777.6  5091.625
777.5  5095.9688
777.4  5098.3438
777.3  5108.875
777.2  5079.1563
777.1  5092
777  5075.0938
776.9  5081.3438
776.8  5065.4063
776.7  5080.8125
776.6  5100.75
776.5  5085.7188
776.4  5072.5
776.3  5094.6563
776.2  5088.0625
776.1  5080.5
776  5070.3125

# Region:            O 1s
# Acquisition Date:  05/24/21 18:19:53 UTC
# Analysis Method:   XPS
# Analyzer:          Phoibos 100 R6
# Analyzer Lens:     LargeArea:1.5kV
# Analyzer Slit:     1:0.2x20\B:open
# Scan Mode:         FixedAnalyzerTransmission
# Curves/Scan:       1
# Values/Curve:      351
# Dwell Time:        0.8
# Excitation Energy: 1486.61
# Binding Energy:    560
# Pass Energy:       30
# Bias Voltage:      90
# Detector Voltage:  2400
# Eff. Workfunction: 4.309
# Source:            X-Ray Dummy
# Comment:           
#
# Cycle: 0
# Number of Scans: 71
#
# Cycle: 0, Curve: 0
# Acquisition Date: 05/24/21 18:19:53 UTC
#
# ColumnLabels: energy counts/s
#
560  4467.5176
559.9  4465.3521
559.8  4459.9648
559.7  4464.9472
559.6  4466.7254
559.5  4471.1972
559.4  4475.8275
559.3  4462.1479
559.2  4456.0211
559.1  4474.419
559  4462.9225
558.9  4468.8204
558.8  4482.1303
558.7  4461.3204
558.6  4462.7993
558.5  4463.9437
558.4  4476.3908
558.3  4481.0387
558.2  4457.1303
558.1  4472.2535
558  4471.4085
557.9  4468.0634
557.8  4468.6268
557.7  4475.8979
557.6  4459.243
557.5  4463.3627
557.4  4488.257
557.3  4481.0035
557.2  4483.5035
557.1  4474.912
557  4484.6303
556.9  4464.1021
556.8  4485.6514
556.7  4463.7676
556.6  4481.4261
556.5  4462.3063
556.4  4476.1444
556.3  4471.1092
556.2  4484.7535
556.1  4491.7958
556  4493.0986
555.9  4484.2254
555.8  4494.6479
555.7  4481.1972
555.6  4497.9401
555.5  4499.1373
555.4  4474.8768
555.3  4502.8873
555.2  4494.2958
555.1  4509.0141
555  4496.3028
554.9  4492.8169
554.8  4482.7289
554.7  4509.5951
554.6  4498.3627
554.5  4512.1831
554.4  4511.5493
554.3  4514.8063
554.2  4539.1021
554.1  4524.4366
554  4518.1162
553.9  4535.6162
553.8  4540.2465
553.7  4534.3838
553.6  4546.0563
553.5  4556.3556
553.4  4553.4507
553.3  4564.2254
553.2  4562.2535
553.1  4565.493
553  4589.4894
552.9  4589.1901
552.8  4589.1549
552.7  4588.4331
552.6  4619.2958
552.5  4606.3732
552.4  4618.5035
552.3  4636.6549
552.2  4638.5739
552.1  4641.1972
552  4666.743
551.9  4677.2887
551.8  4677.8169
551.7  4700.9331
551.6  4699.5423
551.5  4709.4718
551.4  4718.4507
551.3  4732.6408
551.2  4745.6162
551.1  4742.2183
551  4769.8944
550.9  4785.3873
550.8  4803.9437
550.7  4817.8169
550.6  4835.6866
550.5  4851.338
550.4  4873.5387
550.3  4875.5458
550.2  4899.7359
550.1  4932.3415
550  4957.9577
549.9  4957.8697
549.8  4999.1021
549.7  5011.4437
549.6  5025.8627
549.5  5059.7535
549.4  5093.5915
549.3  5118.9613
549.2  5136.25
549.1  5173.0986
549  5191.1796
548.9  5207.3944
548.8  5258.4859
548.7  5281.7077
548.6  5298.6444
548.5  5360.0528
548.4  5375.6514
548.3  5394.9472
548.2  5437.1127
548.1  5461.743
548  5472.4648
547.9  5517.5528
547.8  5548.9261
547.7  5544.1901
547.6  5594.7711
547.5  5639.6831
547.4  5638.6972
547.3  5655.1056
547.2  5673.1514
547.1  5683.5739
547  5723.1866
546.9  5696.5493
546.8  5715.7218
546.7  5704.6479
546.6  5695.7394
546.5  5687.7817
546.4  5688.3275
546.3  5686.3732
546.2  5689.8415
546.1  5669.4718
546  5653.8204
545.9  5617.2183
545.8  5606.7782
545.7  5563.4683
545.6  5534.7535
545.5  5489.4014
545.4  5451.743
545.3  5430.9683
545.2  5411.7782
545.1  5349.0141
545  5306.7958
544.9  5292.3063
544.8  5244.8768
544.7  5213.7148
544.6  5168.75
544.5  5140.1937
544.4  5110.8627
544.3  5056.3908
544.2  5033.3627
544.1  4986.4965
544  4963.1338
543.9  4928.6268
543.8  4901.3908
543.7  4858.3275
543.6  4850.5282
543.5  4814.5599
543.4  4784.8768
543.3  4744.8415
543.2  4740.3873
543.1  4721.6549
543  4683.5035
542.9  4666.8838
542.8  4637.5
542.7  4628.3451
542.6  4594.2254
542.5  4579.7887
542.4  4544.8944
542.3  4544.5951
542.2  4538.3803
542.1  4520.493
542  4500.0704
541.9  4488.8732
541.8  4455.8451
541.7  4428.1866
541.6  4437.8697
541.5  4422.0599
541.4  4407.2183
541.3  4396.6021
541.2  4377.7817
541.1  4368.5387
541  4362.9401
540.9  4364.1373
540.8  4356.9542
540.7  4316.5317
540.6  4330.4401
540.5  4315.3521
540.4  4315.2465
540.3  4281.8838
540.2  4285.0528
540.1  4272.993
540  4267.7641
539.9  4272.2887
539.8  4262.9225
539.7  4271.4965
539.6  4252.8697
539.5  4251.4789
539.4  4237.2887
539.3  4234.6655
539.2  4252.2007
539.1  4235.7394
539  4227.5704
538.9  4226.7254
538.8  4230.1232
538.7  4224.0141
538.6  4204.9824
538.5  4204.2606
538.4  4213.1162
538.3  4211.8486
538.2  4203.9789
538.1  4206.0915
538  4188.257
537.9  4189.7887
537.8  4195.7218
537.7  4206.3028
537.6  4196.6725
537.5  4210.4049
537.4  4199.4366
537.3  4200.8979
537.2  4202.8697
537.1  4188.2394
537  4194.912
536.9  4172.3768
536.8  4198.8732
536.7  4186.3556
536.6  4186.0739
536.5  4180.8803
536.4  4180.8275
536.3  4186.25
536.2  4174.0493
536.1  4188.0458
536  4160.5458
535.9  4188.0282
535.8  4188.5387
535.7  4186.25
535.6  4185.1232
535.5  4184.5775
535.4  4169.9472
535.3  4176.8134
535.2  4195.669
535.1  4193.9613
535  4212.8345
534.9  4202.4648
534.8  4231.1444
534.7  4223.5915
534.6  4255.4225
534.5  4260.3521
534.4  4270.0176
534.3  4283.3099
534.2  4297.8521
534.1  4308.3979
534  4328.2042
533.9  4329.4542
533.8  4333.4683
533.7  4343.9261
533.6  4349.3486
533.5  4341.9542
533.4  4352.3415
533.3  4330.7746
533.2  4335.1585
533.1  4311.1796
533  4301.1972
532.9  4293.4155
532.8  4264.9824
532.7  4259.5775
532.6  4250.6338
532.5  4204.3134
532.4  4203.081
532.3  4197.4296
532.2  4173.1338
532.1  4157.6585
532  4160.1408
531.9  4148.3979
531.8  4146.5669
531.7  4131.5317
531.6  4132.5
531.5  4103.7148
531.4  4116.1092
531.3  4107.1831
531.2  4091.162
531.1  4089.6831
531  4076.3732
530.9  4072.993
530.8  4059.9472
530.7  4060.6162
530.6  4050.4049
530.5  4025.3873
530.4  4017.0246
530.3  4008.9437
530.2  4006.831
530.1  3980.2817
530  3974.3486
529.9  3978.2923
529.8  3970.9859
529.7  3951.162
529.6  3935.5634
529.5  3936.25
529.4  3931.5845
529.3  3933.9085
529.2  3924.1197
529.1  3916.5845
529  3930
528.9  3920.669
528.8  3910.8803
528.7  3900.8275
528.6  3910.2993
528.5  3903.3099
528.4  3910.2993
528.3  3901.7606
528.2  3907.8521
528.1  3906.8838
528  3904.1197
527.9  3907.7817
527.8  3882.6408
527.7  3902.8873
527.6  3919.8768
527.5  3912.1831
527.4  3896.831
527.3  3893.9789
527.2  3893.5035
527.1  3878.3979
527  3889.331
526.9  3902.4824
526.8  3871.6197
526.7  3887.8873
526.6  3897.5352
526.5  3881.8486
526.4  3895.2289
526.3  3887.588
526.2  3889.9296
526.1  3891.6021
526  3887.5704
525.9  3892.9225
525.8  3880.2465
525.7  3888.6268
525.6  3890.4577
525.5  3886.919
525.4  3886.0915
525.3  3894.1197
525.2  3886.743
525.1  3888.4155
525  3887.9225

# Region:            Au 4f
# Acquisition Date:  05/24/21 10:00:29 UTC
# Analysis Method:   XPS
# Analyzer:          Phoibos 100 R6
# Analyzer Lens:     LargeArea:1.5kV
# Analyzer Slit:     1:0.2x20\B:open
# Scan Mode:         FixedAnalyzerTransmission
# Curves/Scan:       1
# Values/Curve:      151
# Dwell Time:        0.8
# Excitation Energy: 1486.61
# Binding Energy:    95
# Pass Energy:       30
# Bias Voltage:      90
# Detector Voltage:  2400
# Eff. Workfunction: 4.309
# Source:            X-Ray Dummy
# Comment:           
#
# Cycle: 0
# Number of Scans: 2
#
# Cycle: 0, Curve: 0
# Acquisition Date: 05/24/21 10:00:29 UTC
#
# ColumnLabels: energy counts/s
#
95  2710
94.9  2690
94.8  2634.375
94.7  2683.125
94.6  2636.25
94.5  2734.375
94.4  2632.5
94.3  2730.625
94.2  2734.375
94.1  2673.125
94  2687.5
93.9  2686.875
93.8  2580
93.7  2676.875
93.6  2713.75
93.5  2717.5
93.4  2693.75
93.3  2667.5
93.2  2730.625
93.1  2769.375
93  2717.5
92.9  2675
92.8  2665
92.7  2743.75
92.6  2746.875
92.5  2670
92.4  2732.5
92.3  2747.5
92.2  2723.75
92.1  2781.25
92  2810.625
91.9  2778.125
91.8  2753.125
91.7  2860
91.6  2828.75
91.5  2847.5
91.4  2901.25
91.3  2840
91.2  2901.25
91.1  2911.875
91  2956.25
90.9  3013.75
90.8  2992.5
90.7  3076.875
90.6  3008.75
90.5  3030.625
90.4  3132.5
90.3  3183.125
90.2  3180.625
90.1  3261.875
90  3254.375
89.9  3501.875
89.8  3600.625
89.7  3640
89.6  3803.125
89.5  3972.5
89.4  4301.25
89.3  4480
89.2  4763.125
89.1  5135
89  5723.75
88.9  6124.375
88.8  6616.875
88.7  7228.75
88.6  7800.625
88.5  8499.375
88.4  8783.75
88.3  9555.625
88.2  9879.375
88.1  10264.375
88  10411.25
87.9  10352.5
87.8  10270
87.7  9903.75
87.6  9667.5
87.5  9209.375
87.4  8510.625
87.3  7989.375
87.2  7204.375
87.1  6718.75
87  6044.375
86.9  5507.5
86.8  5150.625
86.7  4666.875
86.6  4313.75
86.5  4023.75
86.4  3986.875
86.3  3961.875
86.2  3796.25
86.1  3905.625
86  3911.25
85.9  4116.25
85.8  4271.875
85.7  4623.75
85.6  4935.625
85.5  5278.125
85.4  5803.125
85.3  6176.875
85.2  6837.5
85.1  7642.5
85  8310
84.9  8936.875
84.8  9641.25
84.7  10399.375
84.6  11081.875
84.5  11638.125
84.4  11845
84.3  12063.75
84.2  12160.625
84.1  11853.75
84  11467.5
83.9  10805.625
83.8  10063.75
83.7  9296.875
83.6  8366.25
83.5  7505.625
83.4  6638.125
83.3  5802.5
83.2  5029.375
83.1  4541.875
83  3951.25
82.9  3635.625
82.8  3180.625
82.7  2981.875
82.6  2736.875
82.5  2615
82.4  2370
82.3  2353.125
82.2  2227.5
82.1  2166.875
82  2088.125
81.9  2010
81.8  1946.25
81.7  1978.75
81.6  1876.25
81.5  1849.375
81.4  1832.5
81.3  1790.625
81.2  1817.5
81.1  1793.125
81  1735
80.9  1775
80.8  1741.875
80.7  1721.25
80.6  1776.875
80.5  1728.75
80.4  1698.75
80.3  1698.125
80.2  1742.5
80.1  1740.625
80  1631.25

# Region:            N 1s
# Acquisition Date:  05/24/21 18:34:58 UTC
# Analysis Method:   XPS
# Analyzer:          Phoibos 100 R6
# Analyzer Lens:     LargeArea:1.5kV
# Analyzer Slit:     1:0.2x20\B:open
# Scan Mode:         FixedAnalyzerTransmission
# Curves/Scan:       1
# Values/Curve:      101
# Dwell Time:        0.8
# Excitation Energy: 1486.61
# Binding Energy:    405
# Pass Energy:       30
# Bias Voltage:      90
# Detector Voltage:  2400
# Eff. Workfunction: 4.309
# Source:            X-Ray Dummy
# Comment:           
#
# Cycle: 0
# Number of Scans: 85
#
# Cycle: 0, Curve: 0
# Acquisition Date: 05/24/21 18:34:58 UTC
#
# ColumnLabels: energy counts/s
#
405  4221.2059
404.9  4231.9853
404.8  4211.6324
404.7  4224.9118
404.6  4235.0441
404.5  4234.5147
404.4  4233.9412
404.3  4231.3529
404.2  4231.1324
404.1  4220.7794
404  4229.0147
403.9  4241.8971
403.8  4241.4412
403.7  4251.2941
403.6  4242.5441
403.5  4237.1618
403.4  4254.8824
403.3  4253.2059
403.2  4259.6176
403.1  4268.3235
403  4248.4706
402.9  4271.1324
402.8  4265.5882
402.7  4270.3529
402.6  4277.5294
402.5  4284.6029
402.4  4286
402.3  4287.8088
402.2  4301.0441
402.1  4302.3676
402  4305.1176
401.9  4302.2647
401.8  4302.2059
401.7  4316.3088
401.6  4322.4559
401.5  4324.8824
401.4  4328.9559
401.3  4321.4265
401.2  4320.1912
401.1  4323.5294
401  4323.0147
400.9  4313.2059
400.8  4343.1912
400.7  4342.3529
400.6  4328.0588
400.5  4344.9559
400.4  4321.7941
400.3  4317.9118
400.2  4312.3676
400.1  4339.4559
400  4327.1471
399.9  4327.1471
399.8  4326.3529
399.7  4320.3382
399.6  4323.2059
399.5  4340.75
399.4  4313.6324
399.3  4316.8235
399.2  4311.7941
399.1  4307.8088
399  4302.4265
398.9  4297.5735
398.8  4289.1471
398.7  4298.1912
398.6  4288.5
398.5  4293.1765
398.4  4274.2353
398.3  4283.6471
398.2  4287.1176
398.1  4282.7647
398  4283.6029
397.9  4288.8676
397.8  4278.9118
397.7  4256.7647
397.6  4271.1471
397.5  4261.8088
397.4  4287.7794
397.3  4277.9265
397.2  4276.75
397.1  4277.6618
397  4274.6029
396.9  4260.5588
396.8  4273.7647
396.7  4270.5735
396.6  4266.9118
396.5  4274.4853
396.4  4268.6324
396.3  4267.0147
396.2  4258.75
396.1  4290.7353
396  4288.5441
395.9  4286.4412
395.8  4264.0294
395.7  4282.9265
395.6  4290.1324
395.5  4286.7647
395.4  4282.7059
395.3  4282.8088
395.2  4289.8676
395.1  4287.2647
395  4287.1471

# Region:            C 1s
# Acquisition Date:  05/24/21 11:28:03 UTC
# Analysis Method:   XPS
# Analyzer:          Phoibos 100 R6
# Analyzer Lens:     LargeArea:1.5kV
# Analyzer Slit:     1:0.2x20\B:open
# Scan Mode:         FixedAnalyzerTransmission
# Curves/Scan:       1
# Values/Curve:      151
# Dwell Time:        0.8
# Excitation Energy: 1486.61
# Binding Energy:    295
# Pass Energy:       30
# Bias Voltage:      90
# Detector Voltage:  2400
# Eff. Workfunction: 4.309
# Source:            X-Ray Dummy
# Comment:           
#
# Cycle: 0
# Number of Scans: 10
#
# Cycle: 0, Curve: 0
# Acquisition Date: 05/24/21 11:28:03 UTC
#
# ColumnLabels: energy counts/s
#
295  2493.625
294.9  2490.5
294.8  2484.75
294.7  2467.75
294.6  2486.875
294.5  2487
294.4  2470.375
294.3  2495.625
294.2  2471.25
294.1  2481.875
294  2486.125
293.9  2477.625
293.8  2472.125
293.7  2474.75
293.6  2461.75
293.5  2458.5
293.4  2495.375
293.3  2438.25
293.2  2492.125
293.1  2461.75
293  2490.125
292.9  2498
292.8  2490.5
292.7  2499.25
292.6  2498
292.5  2505.5
292.4  2491.875
292.3  2497
292.2  2485.625
292.1  2495.75
292  2484.875
291.9  2474.875
291.8  2483.75
291.7  2527.125
291.6  2520.125
291.5  2491.125
291.4  2471.625
291.3  2500
291.2  2494.5
291.1  2487.5
291  2513.75
290.9  2495.75
290.8  2506.625
290.7  2512.875
290.6  2502.625
290.5  2492.75
290.4  2498.75
290.3  2482
290.2  2541
290.1  2489.875
290  2489
289.9  2518.375
289.8  2514.625
289.7  2500.125
289.6  2510.375
289.5  2522.25
289.4  2512.5
289.3  2547.25
289.2  2513.125
289.1  2567.5
289  2530.375
288.9  2536.75
288.8  2578.125
288.7  2567
288.6  2574
288.5  2596.125
288.4  2593
288.3  2608.125
288.2  2607
288.1  2633
288  2633.25
287.9  2667.625
287.8  2686.125
287.7  2721.5
287.6  2695
287.5  2722.25
287.4  2757.625
287.3  2769.375
287.2  2773.5
287.1  2788.125
287  2843.5
286.9  2842.75
286.8  2850.625
286.7  2843.25
286.6  2844.25
286.5  2861.375
286.4  2884
286.3  2890.625
286.2  2895.5
286.1  2909.5
286  2869.125
285.9  2851.75
285.8  2893.875
285.7  2897
285.6  2884.75
285.5  2882.875
285.4  2885.625
285.3  2861
285.2  2859.625
285.1  2824.375
285  2834.25
284.9  2787.875
284.8  2750.625
284.7  2768.25
284.6  2751.875
284.5  2724.75
284.4  2710.5
284.3  2677.375
284.2  2646.875
284.1  2638.875
284  2617.25
283.9  2568.5
283.8  2588.875
283.7  2542
283.6  2577.875
283.5  2525.375
283.4  2553
283.3  2538.125
283.2  2502.25
283.1  2537.5
283  2535.25
282.9  2505.625
282.8  2524.875
282.7  2485.875
282.6  2489.375
282.5  2494.75
282.4  2494
282.3  2492.375
282.2  2485.5
282.1  2465.125
282  2482.375
281.9  2461.875
281.8  2483.625
281.7  2502.25
281.6  2449.875
281.5  2447.375
281.4  2490.75
281.3  2502.75
281.2  2463.125
281.1  2461.75
281  2478.125
280.9  2448.25
280.8  2459
280.7  2439.875
280.6  2468.375
280.5  2431.625
280.4  2437
280.3  2489.75
280.2  2443.625
280.1  2458.25
280  2465.25

# Region:            overview
# Acquisition Date:  05/24/21 09:51:06 UTC
# Analysis Method:   XPS
# Analyzer:          Phoibos 100 R6
# Analyzer Lens:     MediumArea:1.5kV
# Analyzer Slit:     1:0.2x20\B:open
# Scan Mode:         FixedAnalyzerTransmission
# Curves/Scan:       1
# Values/Curve:      1205
# Dwell Time:        0.2
# Excitation Energy: 1486.61
# Binding Energy:    1200
# Pass Energy:       50
# Bias Voltage:      90
# Detector Voltage:  2400
# Eff. Workfunction: 4.309
# Source:            X-Ray Dummy
# Comment:           
#
# Cycle: 0
# Number of Scans: 1
#
# Cycle: 0, Curve: 0
# Acquisition Date: 05/24/21 09:51:06 UTC
#
# ColumnLabels: energy counts/s
#
1200  7095
1199  6885
1198  6995
1197  6730
1196  6860
1195  7115
1194  6905
1193  7200
1192  6600
1191  6925
1190  7305
1189  6740
1188  7060
1187  6710
1186  6965
1185  6880
1184  7275
1183  7030
1182  6745
1181  6720
1180  6815
1179  6790
1178  6845
1177  6575
1176  6720
1175  6605
1174  6875
1173  6530
1172  6620
1171  6500
1170  6510
1169  6710
1168  6435
1167  6470
1166  6330
1165  6490
1164  6470
1163  6455
1162  6185
1161  6230
1160  6495
1159  6320
1158  6570
1157  6265
1156  6015
1155  6065
1154  6135
1153  6150
1152  6105
1151  6085
1150  6285
1149  6185
1148  6170
1147  6560
1146  5810
1145  6040
1144  6080
1143  5890
1142  5935
1141  5885
1140  6040
1139  5710
1138  5970
1137  5555
1136  6025
1135  6130
1134  6050
1133  5765
1132  5775
1131  5720
1130  5605
1129  5625
1128  5785
1127  5400
1126  5800
1125  5595
1124  5530
1123  5630
1122  5495
1121  5425
1120  5770
1119  5650
1118  5580
1117  5480
1116  5620
1115  5285
1114  5605
1113  5595
1112  5530
1111  5640
1110  5310
1109  5850
1108  5700
1107  5370
1106  5880
1105  5430
1104  5430
1103  5415
1102  5425
1101  5185
1100  5120
1099  5300
1098  5460
1097  5340
1096  5420
1095  5565
1094  5375
1093  5090
1092  5500
1091  5315
1090  5095
1089  5290
1088  5045
1087  5390
1086  5145
1085  5045
1084  5055
1083  5080
1082  5000
1081  5035
1080  5110
1079  5040
1078  4970
1077  5100
1076  4965
1075  4975
1074  4630
1073  5060
1072  4965
1071  4810
1070  4795
1069  4990
1068  4910
1067  4955
1066  4915
1065  5105
1064  5085
1063  4955
1062  4910
1061  4525
1060  4900
1059  4905
1058  4875
1057  4845
1056  4875
1055  5060
1054  4920
1053  4555
1052  4590
1051  5050
1050  4795
1049  4740
1048  4860
1047  4510
1046  4770
1045  4535
1044  4825
1043  4870
1042  4815
1041  4565
1040  4505
1039  4510
1038  4825
1037  4750
1036  4765
1035  4495
1034  4735
1033  4290
1032  4715
1031  4585
1030  4595
1029  4680
1028  4505
1027  4615
1026  4650
1025  4325
1024  4755
1023  4760
1022  4495
1021  4445
1020  4640
1019  4385
1018  4575
1017  4590
1016  4820
1015  4430
1014  4650
1013  4370
1012  4430
1011  4515
1010  4695
1009  4485
1008  4595
1007  4275
1006  4195
1005  4765
1004  4230
1003  4725
1002  4355
1001  4320
1000  4535
999  4105
998  4505
997  4485
996  4545
995  4490
994  4245
