# Created by:        SpecsLab Prodigy, Version 4.60.2-r85849 
#
# XY-Serializer Export Settings:
#   Comment Prefix:           #
#   Output meta data:         yes
#   Energy Axis:              Binding Energy
#   Count Rate:               Counts per Second
#   Separate Scan Data:       no
#   Separate Channel Data:    no
#   External Channel Data:    yes
#   Transmission Function:    no
#   ErrorBar:                 no
#   Operation Results:        yes
#   Time Zone Format:         UTC
#
# Group:             20210507_Au111_clean
#
# Region:            Ba 3d
# Acquisition Date:  05/25/21 02:58:51 UTC
# Analysis Method:   XPS
# Analyzer:          Phoibos 100 R6
# Analyzer Lens:     LargeArea:1.5kV
# Analyzer Slit:     1:0.2x20\B:open
# Scan Mode:         FixedAnalyzerTransmission
# Curves/Scan:       1
# Values/Curve:      81
# Dwell Time:        0.8
# Excitation Energy: 1486.61
# Binding Energy:    784
# Pass Energy:       30
# Bias Voltage:      90
# Detector Voltage:  2400
# Eff. Workfunction: 4.309
# Source:            X-Ray Dummy
# Comment:           
#
# Cycle: 0
# Number of Scans: 50
#
# Cycle: 0, Curve: 0
# Acquisition Date: 05/25/21 02:58:51 UTC
#
# ColumnLabels: energy counts/s
#
784  5170.1
783.9  5185.8
783.8  5175.05
783.7  5174.45
783.6  5165.325
783.5  5170.925
783.4  5159.525
783.3  5195.65
783.2  5181.1
783.1  5190.425
783  5195.225
782.9  5195.425
782.8  5186.35
782.7  5196.425
782.6  5224.725
782.5  5227.45
782.4  5237.65
782.3  5244.65
782.2  5284.925
782.1  5277.675
782  5299.7
781.9  5310.625
781.8  5345.6
781.7  5350.425
781.6  5368.425
781.5  5389.475
781.4  5385.25
781.3  5410.1
781.2  5411.125
781.1  5407.075
781  5395.225
780.9  5404.8
780.8  5397.475
780.7  5390.225
780.6  5396.6
780.5  5381.325
780.4  5368
780.3  5304.75
780.2  5313.225
780.1  5289.075
780  5281.675
779.9  5261.35
779.8  5227.425
779.7  5211.025
779.6  5217.325
779.5  5202.825
779.4  5187.925
779.3  5180.225
779.2  5160.1
779.1  5173.075
779  5152.725
778.9  5145.725
778.8  5144.75
778.7  5108.725
778.6  5124.075
778.5  5118.2
778.4  5126.975
778.3  5127.75
778.2  5109.15
778.1  5106.05
778  5096.45
777.9  5111.35
777.8  5101.1
777.7  5108.5
777.6  5102.075
777.5  5105.8
777.4  5086.325
777.3  5095.1
777.2  5108.975
777.1  5107.675
777  5086.1
776.9  5063.55
776.8  5076.4
776.7  5084.15
776.6  5107.5
776.5  5103.1
776.4  5088.475
776.3  5051.1
776.2  5085.375
776.1  5094.675
776  5095.8

# Region:            N 1s
# Acquisition Date:  05/25/21 07:41:56 UTC
# Analysis Method:   XPS
# Analyzer:          Phoibos 100 R6
# Analyzer Lens:     LargeArea:1.5kV
# Analyzer Slit:     1:0.2x20\B:open
# Scan Mode:         FixedAnalyzerTransmission
# Curves/Scan:       1
# Values/Curve:      101
# Dwell Time:        0.8
# Excitation Energy: 1486.61
# Binding Energy:    405
# Pass Energy:       30
# Bias Voltage:      90
# Detector Voltage:  2400
# Eff. Workfunction: 4.309
# Source:            X-Ray Dummy
# Comment:           
#
# Cycle: 0
# Number of Scans: 96
#
# Cycle: 0, Curve: 0
# Acquisition Date: 05/25/21 07:41:56 UTC
#
# ColumnLabels: energy counts/s
#
405  4198.151
404.9  4195.7031
404.8  4206.3281
404.7  4212.513
404.6  4208.0469
404.5  4195.5469
404.4  4200.2995
404.3  4200.7682
404.2  4203.776
404.1  4228.0078
404  4226.0677
403.9  4214.9479
403.8  4203.151
403.7  4216.7057
403.6  4222.8776
403.5  4210.1823
403.4  4222.8906
403.3  4236.237
403.2  4245.5859
403.1  4244.6484
403  4254.5313
402.9  4236.6146
402.8  4246.862
402.7  4252.6432
402.6  4256.276
402.5  4255.1432
402.4  4261.1849
402.3  4265.651
402.2  4256.1458
402.1  4279.0885
402  4277.0052
401.9  4286.6536
401.8  4291.901
401.7  4297.2786
401.6  4284.8177
401.5  4303.3333
401.4  4308.8281
401.3  4309.4401
401.2  4301.237
401.1  4312.6953
401  4298.9583
400.9  4313.138
400.8  4305.5859
400.7  4310.4167
400.6  4306.1068
400.5  4310.7161
400.4  4321.3021
400.3  4310.1563
400.2  4304.7656
400.1  4303.8411
400  4299.3359
399.9  4300.9115
399.8  4296.7057
399.7  4291.0417
399.6  4295.8203
399.5  4282.8255
399.4  4302.2135
399.3  4293.6068
399.2  4289.1536
399.1  4286.9922
399  4287.0833
398.9  4287.0833
398.8  4283.0208
398.7  4276.4583
398.6  4275.7161
398.5  4278.9063
398.4  4260.599
398.3  4266.9661
398.2  4260.1823
398.1  4242.5781
398  4255.1302
397.9  4253.4115
397.8  4253.8672
397.7  4254.6094
397.6  4239.401
397.5  4247.7734
397.4  4234.7005
397.3  4236.7318
397.2  4242.3698
397.1  4223.4896
397  4241.849
396.9  4237.1224
396.8  4248.9714
396.7  4257.3958
396.6  4242.0573
396.5  4234.1146
396.4  4247.4089
396.3  4256.5495
396.2  4259.6615
396.1  4257.0313
396  4261.3151
395.9  4260.026
395.8  4244.1927
395.7  4264.3359
395.6  4261.3932
395.5  4262.5651
395.4  4261.7708
395.3  4269.0234
395.2  4262.5521
395.1  4267.474
395  4271.7839

# Region:            C 1s
# Acquisition Date:  05/25/21 00:34:26 UTC
# Analysis Method:   XPS
# Analyzer:          Phoibos 100 R6
# Analyzer Lens:     LargeArea:1.5kV
# Analyzer Slit:     1:0.2x20\B:open
# Scan Mode:         FixedAnalyzerTransmission
# Curves/Scan:       1
# Values/Curve:      151
# Dwell Time:        0.8
# Excitation Energy: 1486.61
# Binding Energy:    295
# Pass Energy:       30
# Bias Voltage:      90
# Detector Voltage:  2400
# Eff. Workfunction: 4.309
# Source:            X-Ray Dummy
# Comment:           
#
# Cycle: 0
# Number of Scans: 30
#
# Cycle: 0, Curve: 0
# Acquisition Date: 05/25/21 00:34:26 UTC
#
# ColumnLabels: energy counts/s
#
295  2467.625
294.9  2451.4167
294.8  2457.25
294.7  2483.375
294.6  2483.5833
294.5  2465.375
294.4  2466.2917
294.3  2463.5833
294.2  2504.0417
294.1  2475.3333
294  2479.1667
293.9  2470.1667
293.8  2494.4583
293.7  2479.625
293.6  2473.5417
293.5  2472.9583
293.4  2479.3333
293.3  2473.125
293.2  2487.125
293.1  2487.875
293  2487.7083
292.9  2488.75
292.8  2477.5833
292.7  2471.0417
292.6  2491.75
292.5  2487.8333
292.4  2498.0417
292.3  2483.4583
292.2  2487.7917
292.1  2494.375
292  2485.25
291.9  2503.3333
291.8  2495.5417
291.7  2483.3333
291.6  2483.8333
291.5  2480.4583
291.4  2490.7083
291.3  2511.5
291.2  2495.4167
291.1  2478.9167
291  2476.7917
290.9  2503.6667
290.8  2491.375
290.7  2515.5833
290.6  2494.9167
290.5  2490.75
290.4  2510.125
290.3  2510.375
290.2  2497.4167
290.1  2510.625
290  2512.4583
289.9  2526.9583
289.8  2500.5833
289.7  2502.75
289.6  2506.125
289.5  2533.9167
289.4  2541.0833
289.3  2524.625
289.2  2537.6667
289.1  2539.9583
289  2557.2917
288.9  2561
288.8  2538.5417
288.7  2547.1667
288.6  2575.4167
288.5  2583.2083
288.4  2583
288.3  2606.25
288.2  2632.375
288.1  2630.625
288  2660.5833
287.9  2655.2083
287.8  2696.2917
287.7  2686.5417
287.6  2727.1667
287.5  2736.75
287.4  2739
287.3  2770.1667
287.2  2758.875
287.1  2809
287  2810.2917
286.9  2823.875
286.8  2828.0833
286.7  2830.2083
286.6  2857.875
286.5  2865.5
286.4  2873.1667
286.3  2874.625
286.2  2873.375
286.1  2876.9167
286  2893.875
285.9  2894.9167
285.8  2890
285.7  2889.25
285.6  2899.9583
285.5  2872.4583
285.4  2854.9167
285.3  2871.0833
285.2  2851.4167
285.1  2799.9583
285  2835.75
284.9  2800.3333
284.8  2781.5417
284.7  2764.625
284.6  2743.5833
284.5  2713.5
284.4  2688.0833
284.3  2677.9167
284.2  2655.125
284.1  2642.25
284  2602.125
283.9  2596.5
283.8  2578.5
283.7  2569.0417
283.6  2549.0417
283.5  2543.5
283.4  2533.7917
283.3  2538.0833
283.2  2514.625
283.1  2513.125
283  2509.5417
282.9  2521.2917
282.8  2486.75
282.7  2496.375
282.6  2507.0833
282.5  2484.0833
282.4  2510.0417
282.3  2490.25
282.2  2460.375
282.1  2475.375
282  2478.75
281.9  2477.4167
281.8  2493.375
281.7  2463.0833
281.6  2466.875
281.5  2457.9167
281.4  2449
281.3  2464.7083
281.2  2446.75
281.1  2480.2917
281  2456.375
280.9  2464.6667
280.8  2450.2083
280.7  2459.25
280.6  2459.1667
280.5  2461.2083
280.4  2457.2083
280.3  2447.8333
280.2  2470.2917
280.1  2464.625
280  2458.6667

# Region:            O 1s
# Acquisition Date:  05/25/21 07:46:41 UTC
# Analysis Method:   XPS
# Analyzer:          Phoibos 100 R6
# Analyzer Lens:     LargeArea:1.5kV
# Analyzer Slit:     1:0.2x20\B:open
# Scan Mode:         FixedAnalyzerTransmission
# Curves/Scan:       1
# Values/Curve:      351
# Dwell Time:        0.8
# Excitation Energy: 1486.61
# Binding Energy:    560
# Pass Energy:       30
# Bias Voltage:      90
# Detector Voltage:  2400
# Eff. Workfunction: 4.309
# Source:            X-Ray Dummy
# Comment:           
#
# Cycle: 0
# Number of Scans: 96
#
# Cycle: 0, Curve: 0
# Acquisition Date: 05/25/21 07:46:41 UTC
#
# ColumnLabels: energy counts/s
#
560  4451.3151
559.9  4464.7917
559.8  4462.9557
559.7  4460.3385
559.6  4456.6667
559.5  4445.6901
559.4  4448.2552
559.3  4450.4036
559.2  4453.2682
559.1  4455.1172
559  4457.4479
558.9  4462.9688
558.8  4449.3099
558.7  4453.0078
558.6  4464.8438
558.5  4454.1927
558.4  4458.138
558.3  4459.2318
558.2  4452.9557
558.1  4457.2396
558  4460.3255
557.9  4457.7734
557.8  4458.0599
557.7  4458.9193
557.6  4464.7005
557.5  4460.4297
557.4  4462.2135
557.3  4468.4505
557.2  4447.0313
557.1  4464.5833
557  4463.8151
556.9  4454.1667
556.8  4469.6354
556.7  4468.2813
556.6  4463.5807
556.5  4469.0755
556.4  4450.2344
556.3  4460.8594
556.2  4467.2526
556.1  4459.5964
556  4459.7526
555.9  4467.7995
555.8  4467.0573
555.7  4480.2995
555.6  4470.4948
555.5  4473.9844
555.4  4474.349
555.3  4474.5833
555.2  4498.099
555.1  4493.3464
555  4481.4193
554.9  4490.6901
554.8  4480.4427
554.7  4486.263
554.6  4495.1953
554.5  4491.4323
554.4  4491.0677
554.3  4513.9323
554.2  4519.974
554.1  4497.1354
554  4506.6667
553.9  4504.2839
553.8  4514.5182
553.7  4528.8021
553.6  4518.9193
553.5  4543.2292
553.4  4535.5729
553.3  4550.5208
553.2  4555.0781
553.1  4564.0885
553  4575
552.9  4571.1589
552.8  4581.4974
552.7  4577.6302
552.6  4590.8984
552.5  4597.6953
552.4  4594.7656
552.3  4616.4063
552.2  4614.2448
552.1  4639.2969
552  4631.4193
551.9  4631.3021
551.8  4653.0859
551.7  4662.2396
551.6  4672.487
551.5  4691.0807
551.4  4702.0964
551.3  4708.4505
551.2  4723.5156
551.1  4731.849
551  4749.6484
550.9  4758.151
550.8  4774.9349
550.7  4789.6354
550.6  4802.2656
550.5  4811.4193
550.4  4844.6224
550.3  4855.2995
550.2  4871.9531
550.1  4889.9479
550  4920.8594
549.9  4943.6589
549.8  4965.8203
549.7  4990.5469
549.6  4998.125
549.5  5019.9089
549.4  5065.1693
549.3  5069.5443
549.2  5094.4141
549.1  5120.4036
549  5144.401
548.9  5187.8385
548.8  5212.9427
548.7  5237.0964
548.6  5257.5
548.5  5297.2396
548.4  5336.1328
548.3  5350.4818
548.2  5382.3047
548.1  5407.2135
548  5444.0495
547.9  5471.875
547.8  5502.513
547.7  5514.0625
547.6  5529.2318
547.5  5561.1068
547.4  5594.4792
547.3  5616.875
547.2  5617.2396
547.1  5637.1354
547  5642.5651
546.9  5652.9036
546.8  5668.2943
546.7  5657.8776
546.6  5661.276
546.5  5664.6745
546.4  5659.2188
546.3  5638.9323
546.2  5627.8385
546.1  5620.9375
546  5600.2995
545.9  5570.3125
545.8  5543.2682
545.7  5500.5339
545.6  5475.3125
545.5  5445.013
545.4  5422.1615
545.3  5387.3047
545.2  5365.7552
545.1  5322.6432
545  5293.8151
544.9  5243.0729
544.8  5217.2917
544.7  5164.7786
544.6  5144.6224
544.5  5107.1224
544.4  5058.6198
544.3  5032.2917
544.2  5002.9948
544.1  4975.4688
544  4928.4505
543.9  4915.013
543.8  4866.3932
543.7  4828.8802
543.6  4804.2318
543.5  4776.6536
543.4  4774.7005
543.3  4747.1875
543.2  4700.3776
543.1  4686.9141
543  4664.8698
542.9  4640.9115
542.8  4624.3229
542.7  4596.849
542.6  4589.1146
542.5  4557.9948
542.4  4539.7786
542.3  4521.4453
542.2  4495.5729
542.1  4493.5156
542  4471.25
541.9  4450.5078
541.8  4429.4271
541.7  4418.3724
541.6  4421.276
541.5  4387.6042
541.4  4375.7682
541.3  4379.7917
541.2  4356.7057
541.1  4350.1042
541  4335.2865
540.9  4333.9063
540.8  4319.9479
540.7  4310.651
540.6  4301.5104
540.5  4286.0026
540.4  4290.5599
540.3  4269.1536
540.2  4253.4115
540.1  4270.7031
540  4259.1536
539.9  4251.9271
539.8  4244.4531
539.7  4252.0313
539.6  4224.8958
539.5  4230.6771
539.4  4215.013
539.3  4229.4792
539.2  4218.8151
539.1  4207.1224
539  4222.8255
538.9  4205.6641
538.8  4201.1068
538.7  4207.0443
538.6  4214.6354
538.5  4208.776
538.4  4200.1302
538.3  4201.4453
538.2  4197.6693
538.1  4181.7578
538  4185.026
537.9  4195.5078
537.8  4171.3021
537.7  4183.0729
537.6  4182.1224
537.5  4196.8099
537.4  4175.0521
537.3  4181.4974
537.2  4177.6823
537.1  4167.7083
537  4169.7917
536.9  4166.6797
536.8  4166.5104
536.7  4160.2604
536.6  4157.7995
536.5  4162.3568
536.4  4157.8906
536.3  4152.7865
536.2  4176.7057
536.1  4157.4219
536  4160.8854
535.9  4152.2786
535.8  4160.8594
535.7  4161.7708
535.6  4163.9323
535.5  4158.3464
535.4  4158.3724
535.3  4179.3359
535.2  4167.2135
535.1  4184.8828
535  4198.0078
534.9  4198.0859
534.8  4192.1615
534.7  4222.6172
534.6  4219.8047
534.5  4237.3698
534.4  4240.4036
534.3  4257.8255
534.2  4274.6615
534.1  4301.8099
534  4292.5651
533.9  4319.3229
533.8  4318.0339
533.7  4320.0521
533.6  4318.138
533.5  4326.9661
533.4  4326.6276
533.3  4317.2656
533.2  4301.1328
533.1  4291.9271
533  4275.638
532.9  4271.9661
532.8  4266.4453
532.7  4228.0208
532.6  4218.8281
532.5  4209.3359
532.4  4194.2839
532.3  4172.3828
532.2  4158.737
532.1  4152.9167
532  4133.5807
531.9  4125.4427
531.8  4135.5859
531.7  4114.1406
531.6  4115.7292
531.5  4101.1979
531.4  4087.3698
531.3  4093.0339
531.2  4088.3854
531.1  4062.4089
531  4074.6745
530.9  4053.5417
530.8  4046.0547
530.7  4038.4635
530.6  4017.513
530.5  4009.401
530.4  4005.0651
530.3  3996.4583
530.2  3981.5755
530.1  3969.6615
530  3980.1823
529.9  3952.0313
529.8  3948.2422
529.7  3931.6016
529.6  3934.375
529.5  3928.9193
529.4  3936.3672
529.3  3927.3307
529.2  3911.8099
529.1  3904.8958
529  3914.2839
528.9  3912.8906
528.8  3925.5729
528.7  3904.2188
528.6  3893.6979
528.5  3901.1458
528.4  3903.6719
528.3  3906.5625
528.2  3882.5521
528.1  3888.0859
528  3887.1224
527.9  3894.3359
527.8  3890.8854
527.7  3895.026
527.6  3886.9141
527.5  3866.4063
527.4  3893.151
527.3  3885.3255
527.2  3887.9036
527.1  3887.7344
527  3892.487
526.9  3883.737
526.8  3880.9245
526.7  3883.5547
526.6  3879.9089
526.5  3873.0078
526.4  3873.8021
526.3  3877.2396
526.2  3865.625
526.1  3876.0807
526  3876.9661
525.9  3875.1693
525.8  3882.0573
525.7  3870.5208
525.6  3874.4792
525.5  3880.651
525.4  3867.8516
525.3  3883.6068
525.2  3872.9427
525.1  3873.1771
525  3876.237

# Region:            overview
# Acquisition Date:  05/24/21 19:13:27 UTC
# Analysis Method:   XPS
# Analyzer:          Phoibos 100 R6
# Analyzer Lens:     MediumArea:1.5kV
# Analyzer Slit:     1:0.2x20\B:open
# Scan Mode:         FixedAnalyzerTransmission
# Curves/Scan:       1
# Values/Curve:      1205
# Dwell Time:        0.2
# Excitation Energy: 1486.61
# Binding Energy:    1200
# Pass Energy:       50
# Bias Voltage:      90
# Detector Voltage:  2400
# Eff. Workfunction: 4.309
# Source:            X-Ray Dummy
# Comment:           
#
# Cycle: 0
# Number of Scans: 1
#
# Cycle: 0, Curve: 0
# Acquisition Date: 05/24/21 19:13:27 UTC
#
# ColumnLabels: energy counts/s
#
1200  7090
1199  7355
1198  7035
1197  7380
1196  7125
1195  7285
1194  7370
1193  7135
1192  7040
1191  6690
1190  6385
1189  7050
1188  6700
1187  7285
1186  6630
1185  7110
1184  7125
1183  6990
1182  6585
1181  6775
1180  6610
1179  6565
1178  6535
1177  6960
1176  6540
1175  6525
1174  6715
1173  6515
1172  6600
1171  6640
1170  6430
1169  6680
1168  6195
1167  6655
1166  6110
1165  6385
1164  6245
1163  6315
1162  6460
1161  6530
1160  6290
1159  6270
1158  6240
1157  6485
1156  6285
1155  6165
1154  5895
1153  6180
1152  5780
1151  6185
1150  5795
1149  6240
1148  6200
1147  6315
1146  5960
1145  6325
1144  6370
1143  5985
1142  5890
1141  6095
1140  5730
1139  5975
1138  5950
1137  5955
1136  5775
1135  5800
1134  6080
1133  5835
1132  5675
1131  5735
1130  6050
1129  5940
1128  5800
1127  5855
1126  5895
1125  5630
1124  5725
1123  5990
1122  5790
1121  5600
1120  5615
1119  5480
1118  5775
1117  5480
1116  5515
1115  5670
1114  5635
1113  5700
1112  5505
1111  5340
1110  5500
1109  5340
1108  5570
1107  5580
1106  5280
1105  5540
1104  5700
1103  5450
1102  5750
1101  5375
1100  5645
1099  5275
1098  5260
1097  5375
1096  5335
1095  5575
1094  5245
1093  5445
1092  5380
1091  5145
1090  5400
1089  5050
1088  5020
1087  5485
1086  5370
1085  5280
1084  5355
1083  5185
1082  5080
1081  4995
1080  5210
1079  5220
1078  5065
1077  4910
1076  4875
1075  5070
1074  5050
1073  4815
1072  5240
1071  4950
1070  4920
1069  5060
1068  4765
1067  4870
1066  4650
1065  4960
1064  5100
1063  4870
1062  4880
1061  5215
1060  4840
1059  4935
1058  4955
1057  5020
1056  5085
1055  4900
1054  4880
1053  4820
1052  4965
1051  5010
1050  4825
1049  4845
1048  4840
1047  4645
1046  4575
1045  4735
1044  4755
1043  4810
1042  4600
1041  4800
1040  4515
1039  4785
1038  4765
1037  4615
1036  4735
1035  4660
1034  4650
1033  4540
1032  4755
1031  4395
1030  4485
1029  4660
1028  4525
1027  4725
1026  4730
1025  4785
1024  4495
1023  4345
1022  4360
1021  4600
1020  4620
1019  4635
1018  4430
1017  4530
1016  4575
1015  4255
1014  4445
1013  4745
1012  4675
1011  4510
1010  4590
1009  4505
1008  4425
1007  4550
1006  4430
1005  4640
1004  4295
1003  4960
1002  4670
1001  4555
1000  4640
999  4490
998  4435
997  4615
996  4180
995  4535
994  4600
993  4385
992  4460
991  4290
990  4585
989  4155
988  4790
987  3995
986  4270
985  4655
984  4445
983  4145
982  4295
981  4355
980  4900
979  4465
978  4455
977  4730
976  4695
975  4355
974  4305
973  4405
972  4345
971  4600
970  4500
969  4455
968  4390
967  4370
966  4190
965  4010
964  4425
963  4355
962  4310
961  4315
960  4450
959  4215
958  4445
957  3995
956  4300
955  4150
954  4360
953  4360
952  4395
951  4230
950  4090
949  4395
948  4475
947  4330
946  4305
945  4195
944  4440
943  4430
942  4450
941  4350
940  4575
939  4290
938  4395
937  4025
936  4180
935  4260
934  4015
933  4205
932  4095
931  4405
930  4305
929  4130
928  4135
927  4415
926  4230
925  4205
924  4275
923  4250
922  4255
921  4260
920  4450
919  4135
918  4410
917  4275
916  4095
915  3950
914  4350
913  3980
912  4070
911  4420
910  4155
909  4375
908  4475
907  4275
906  4080
905  4125
904  4130
903  4285
902  4420
901  4390
900  4080
899  4375
898  4260
897  3995
896  3920
895  4280
894  4360
893  4185
892  4405
891  4270
890  4345
889  4215
888  4360
887  4275
886  4405
885  4535
884  4085
883  4135
882  4075
881  4065
880  4235
879  4340
878  4350
877  4150
876  4320
875  4155
874  4385
873  4205
872  4120
871  4165
870  4320
869  4395
868  4350
867  4310
866  4175
865  4315
864  4280
863  4100
862  4475
861  4380
860  4165
859  4325
858  4280
857  4505
856  4120
855  4320
854  4300
853  4335
852  4150
851  4340
850  4230
849  4490
848  4225
847  4520
846  4130
845  4405
844  4145
843  4245
842  4295
841  4235
840  4270
839  3990
838  4410
837  4245
836  4405
835  4255
834  4435
833  4180
832  4310
831  4165
830  4315
829  4425
828  4455
827  4145
826  4135
825  4290
824  4365
823  4085
822  4510
821  4340
820  4495
819  4425
818  4205
817  4435
816  4185
815  4180
814  4445
813  4430
812  4490
811  4135
810  4480
809  4380
808  4270
807  4385
806  4090
805  4255
804  4505
803  4295
802  4480
801  4315
800  4515
799  4455
798  4480
797  4440
796  4300
795  4520
794  4685
793  4610
792  4305
791  4205
790  4605
789  4740
788  4470
787  4420
786  4410
785  4395
784  4470
783  4670
782  4460
781  4485
780  4605
779  4420
778  4440
777  4540
776  4675
775  4410
774  4240
773  4360
772  4265
771  4205
770  4365
769  4470
768  4575
767  4410
766  4820
765  4755
764  4555
763  4490
762  4740
761  4630
760  4775
759  4605
758  4345
757  4300
756  4540
755  4255
754  4165
753  4595
752  4420
751  4455
750  4435
749  4200
748  4335
747  4280
746  4145
745  4195
744  4400
743  4555
742  4455
741  4560
740  4195
739  4235
738  4290
737  4385
736  4455
735  4455
734  4280
733  4370
732  4415
731  4125
730  4235
729  4515
728  4470
