# Created by:        SpecsLab Prodigy, Version 4.74.2-r95700
#
# XY-Serializer Export Settings:
#   Comment Prefix:           #
#   Output Meta Data:         yes
#   Energy Axis:              Binding Energy
#   Count Rate:               Counts per Second
#   Separate Scan Data:       no
#   Separate Channel Data:    no
#   External Channel Data:    yes
#   Transmission Function:    no
#   Error Bar:                no
#   Operation Results:        yes
#   Time Zone Format:         UTC
#
# Group:             UHV Evap
#
# Region:            survey
# Spectrum ID:       1
# Acquisition Date:  06/30/22 14:03:47 UTC
# Analysis Method:   XPS
# Analyzer:          Analyzer
# Analyzer Lens:     MediumArea:1.5kV
# Analyzer Slit:     4:3x20\B:open
# Scan Mode:         FixedAnalyzerTransmission
# Curves/Scan:       1
# Values/Curve:      941
# Dwell Time:        0.1
# Excitation Energy: 1486.71
# Binding Energy:    936.71
# Pass Energy:       50
# Bias Voltage:      -1
# Detector Voltage:  1800
# Eff. Workfunction: 4.498
# Source:            XR 50 MF (UXC1000)
# Comment:
# OrdinateRange:     [-7.000000, 7.000000]
#
# Cycle: 0
# Number of Scans: 1
#
# Cycle: 0, Curve: 0
# Acquisition Date: 06/30/22 14:03:47 UTC
#
# ColumnLabels: energy counts/s
#
936.71  28.673207
935.71  32.507563
934.71  39.731594
933.71  144.281
932.71  347.11133
931.71  77.25968
930.71  25.075202
929.71  17.701157
928.71  18.331577
927.71  17.601568
926.71  18.20757
925.71  16.086292
924.71  17.741106
923.71  16.479358
922.71  15.566556
921.71  16.102597
920.71  17.322438
919.71  17.010934
918.71  17.593737
917.71  16.934438
916.71  16.526485
915.71  16.616389
914.71  17.819614
913.71  17.022133
912.71  15.988078
911.71  16.953243
910.71  16.805845
909.71  17.75455
908.71  17.710041
907.71  17.760719
906.71  17.177947
905.71  16.005304
904.71  17.860539
903.71  17.877999
902.71  14.491965
901.71  16.404331
900.71  17.49614
899.71  17.499564
898.71  17.073178
897.71  16.051797
896.71  17.297279
895.71  19.85688
894.71  16.859213
893.71  17.207837
892.71  17.015089
891.71  16.897469
890.71  16.920938
889.71  16.631954
888.71  17.144893
887.71  17.76764
886.71  17.781146
885.71  18.303266
884.71  17.322515
883.71  17.796535
882.71  18.726249
881.71  19.637453
880.71  20.133583
879.71  19.092629
878.71  17.378191
877.71  19.070397
876.71  21.365359
875.71  19.330971
874.71  15.31368
873.71  19.583687
872.71  19.885545
871.71  18.413862
870.71  18.097597
869.71  17.942331
868.71  19.344026
867.71  21.030007
866.71  18.861886
865.71  20.505947
864.71  20.460575
863.71  17.630965
862.71  17.765593
861.71  19.363484
860.71  19.016248
859.71  21.238127
858.71  23.700202
857.71  19.637998
856.71  17.626527
855.71  20.207451
854.71  18.812406
853.71  20.910086
852.71  17.358058
851.71  19.419752
850.71  21.799079
849.71  21.880457
848.71  19.866752
847.71  20.361247
846.71  20.149736
845.71  20.489184
844.71  20.43499
843.71  18.636511
842.71  20.742262
841.71  19.504322
840.71  19.345102
839.71  20.541893
838.71  22.298783
837.71  21.104492
836.71  20.119376
835.71  19.471736
834.71  24.512325
833.71  23.028346
832.71  20.847626
831.71  20.865797
830.71  23.291199
829.71  25.178254
828.71  23.831637
827.71  22.516971
826.71  23.218912
825.71  22.153
824.71  22.930691
823.71  24.493797
822.71  21.329631
821.71  24.143453
820.71  22.982571
819.71  22.287301
818.71  21.058572
817.71  22.908352
816.71  22.825534
815.71  22.992224
814.71  24.369791
813.71  24.573716
812.71  23.281076
811.71  24.369376
810.71  27.701936
809.71  24.87038
808.71  22.793665
807.71  25.254273
806.71  25.186204
805.71  24.149773
804.71  24.734071
803.71  25.11004
802.71  24.535759
801.71  24.523305
800.71  26.070457
799.71  25.41571
798.71  23.87976
797.71  23.501444
796.71  25.062189
795.71  25.941783
794.71  25.328566
793.71  27.259357
792.71  24.495813
791.71  23.452076
790.71  25.435635
789.71  26.840892
788.71  23.89244
787.71  25.523623
786.71  26.590895
785.71  26.475467
784.71  29.277405
783.71  27.846772
782.71  28.183737
781.71  28.264716
780.71  29.055286
779.71  26.049434
778.71  27.727852
777.71  27.623514
776.71  27.524416
775.71  29.384733
774.71  27.504473
773.71  28.866082
772.71  29.373695
771.71  29.01397
770.71  31.407035
769.71  30.984853
768.71  28.539546
767.71  29.392817
766.71  29.485372
765.71  27.138475
764.71  28.50456
763.71  28.467042
762.71  28.765877
761.71  31.143919
760.71  28.023425
759.71  30.045009
758.71  28.573188
757.71  29.267834
756.71  29.763088
755.71  29.624411
754.71  32.036471
753.71  34.549502
752.71  30.872474
751.71  29.317858
750.71  27.852642
749.71  29.037137
748.71  27.978104
747.71  29.059662
746.71  29.411472
745.71  29.779984
744.71  30.810957
743.71  31.0646
742.71  29.102669
741.71  28.636116
740.71  31.152637
739.71  30.978277
738.71  31.048783
737.71  28.096022
736.71  31.328089
735.71  34.057383
734.71  30.389304
733.71  29.418485
732.71  32.64433
731.71  32.394269
730.71  32.229214
729.71  32.31104
728.71  31.57858
727.71  33.743842
726.71  33.43102
725.71  35.439236
724.71  36.250016
723.71  34.17995
722.71  32.702268
721.71  33.804002
720.71  33.449178
719.71  36.402532
718.71  35.467849
717.71  33.75641
716.71  34.26994
715.71  36.688992
714.71  35.072086
713.71  36.364402
712.71  35.194416
711.71  32.038741
710.71  32.474156
709.71  29.783482
708.71  27.832626
707.71  30.519089
706.71  28.013124
705.71  25.141984
704.71  28.066461
703.71  25.997485
702.71  24.573776
701.71  24.768179
700.71  27.346114
699.71  27.290495
698.71  26.464578
697.71  25.733852
696.71  27.367257
695.71  24.662737
694.71  25.20262
693.71  25.79721
692.71  25.494484
691.71  25.874591
690.71  24.650444
689.71  27.625204
688.71  26.443878
687.71  26.136908
686.71  23.922082
685.71  23.400858
684.71  26.67611
683.71  24.533737
682.71  23.941983
681.71  27.683349
680.71  25.505793
679.71  26.515917
678.71  24.485863
677.71  24.693391
676.71  25.918822
675.71  26.423672
674.71  27.169254
673.71  26.656111
672.71  25.354685
671.71  29.367242
670.71  26.113979
669.71  25.671037
668.71  27.349107
667.71  28.603901
666.71  26.247313
665.71  26.674863
664.71  27.000234
663.71  24.724721
662.71  25.0328
661.71  26.144291
660.71  27.764669
659.71  28.132191
658.71  28.400615
657.71  28.27898
656.71  30.407987
655.71  28.641096
654.71  28.708333
653.71  28.778297
652.71  28.522427
651.71  29.507828
650.71  28.619969
649.71  32.221858
648.71  33.300209
647.71  38.404653
646.71  37.793976
645.71  32.940408
644.71  31.977198
643.71  28.929733
642.71  28.492536
641.71  26.659485
640.71  29.578018
639.71  30.660948
638.71  29.165004
637.71  25.801776
636.71  21.793085
635.71  21.39877
634.71  22.381257
633.71  19.903717
632.71  19.330573
631.71  18.937626
630.71  19.650027
629.71  22.972226
628.71  21.386061
627.71  20.6914
626.71  18.946332
625.71  17.45122
624.71  16.671018
623.71  19.58633
622.71  19.61695
621.71  18.849927
620.71  20.104126
619.71  17.70613
618.71  16.80891
617.71  16.302898
616.71  15.164106
615.71  17.1219
614.71  15.50238
613.71  17.262565
612.71  16.550636
611.71  14.719979
610.71  15.749634
609.71  17.051609
608.71  17.452404
607.71  18.032638
606.71  17.080312
605.71  18.69089
604.71  18.449951
603.71  18.899557
602.71  17.969169
601.71  18.694029
600.71  18.465678
599.71  18.16951
598.71  17.510101
597.71  18.781813
596.71  19.440725
595.71  19.618193
594.71  20.916907
593.71  20.580743
592.71  20.967936
591.71  20.553915
590.71  18.770943
589.71  21.689708
588.71  20.388424
587.71  19.238789
586.71  20.299383
585.71  22.096141
584.71  19.377967
583.71  19.103621
582.71  18.36969
581.71  18.417972
580.71  20.150581
579.71  21.482146
578.71  19.802678
577.71  19.757
576.71  23.16182
575.71  22.174768
574.71  24.558785
573.71  28.182586
572.71  31.388584
571.71  29.606771
570.71  32.150226
569.71  35.951345
568.71  49.340406
567.71  60.730694
566.71  31.034162
565.71  22.816345
564.71  20.430252
563.71  13.146674
562.71  10.972161
561.71  12.473408
560.71  11.274638
559.71  11.190104
558.71  10.408885
557.71  9.8083425
556.71  8.3844924
555.71  9.4755531
554.71  8.582835
553.71  9.1958114
552.71  9.4960572
551.71  8.5536597
550.71  8.8713359
549.71  8.6128928
548.71  10.367572
547.71  9.487001
546.71  7.0264808
545.71  5.4411139
544.71  6.6384332
543.71  4.6871826
542.71  4.1658192
541.71  3.304341
540.71  3.9118802
539.71  4.3709374
538.71  5.8307678
537.71  4.045928
536.71  4.4996661
535.71  4.2723559
534.71  4.4125526
533.71  4.7985582
532.71  5.1885519
531.71  4.9296452
530.71  4.2712615
529.71  3.9346766
528.71  3.6299637
527.71  3.7658704
526.71  3.4897775
525.71  3.1803569
524.71  2.893484
523.71  3.8055745
522.71  4.0243369
521.71  4.53255
520.71  3.2814333
519.71  3.6721979
518.71  3.217942
517.71  3.5130986
516.71  3.1971422
515.71  3.3588441
514.71  3.1885454
513.71  3.4256567
512.71  3.450167
511.71  3.4776509
510.71  3.1357744
509.71  3.1805553
508.71  3.3637777
507.71  3.3149347
506.71  3.6885512
505.71  3.7838943
504.71  2.9778653
503.71  3.2861696
502.71  4.2690568
501.71  4.0860289
500.71  4.1653772
499.71  4.2154717
498.71  2.8863651
497.71  3.315893
496.71  3.6884906
495.71  3.6810484
494.71  3.640866
493.71  3.6275267
492.71  4.1936464
491.71  4.0250141
490.71  3.7165817
489.71  3.1332928
488.71  3.1929957
487.71  3.633518
486.71  4.1303263
485.71  3.166179
484.71  3.3681508
483.71  3.1300092
482.71  3.1196343
481.71  3.148128
480.71  3.9413994
479.71  3.7540988
478.71  4.3784598
477.71  3.7125215
476.71  2.9832491
475.71  3.2453323
474.71  2.9944806
473.71  3.0143235
472.71  3.4526993
471.71  3.1755104
470.71  3.6610908
469.71  3.6189895
468.71  3.8778221
467.71  2.7486079
466.71  3.5614172
465.71  3.8708116
464.71  4.4469844
463.71  3.7585136
462.71  3.3492693
461.71  3.7401276
460.71  4.026655
459.71  3.7338829
458.71  4.6753532
457.71  4.1071028
456.71  3.6654151
455.71  2.9257685
454.71  3.118405
453.71  4.0560232
452.71  3.7675382
451.71  3.3232057
450.71  3.1565913
449.71  3.4107153
448.71  4.1745733
447.71  3.2469077
446.71  3.7456394
445.71  3.9430319
444.71  4.3098609
443.71  3.680835
442.71  2.8749331
441.71  4.0639809
440.71  4.9041187
439.71  4.148143
438.71  3.4788872
437.71  3.7808308
436.71  3.912654
435.71  3.7803137
434.71  4.2840118
433.71  5.7430109
432.71  4.0080203
431.71  3.9769774
430.71  4.0148338
429.71  4.286089
428.71  4.5721838
427.71  4.1928681
426.71  3.9203105
425.71  3.8020551
424.71  3.6782673
423.71  3.8582663
422.71  4.0216715
421.71  4.149877
420.71  3.5962523
419.71  3.4098395
418.71  3.6268748
417.71  3.7587013
416.71  3.8867681
415.71  4.1569419
414.71  4.1182533
413.71  4.2291407
412.71  4.5598026
411.71  4.2076825
410.71  4.2214894
409.71  3.8385214
408.71  4.2174686
407.71  4.2405998
406.71  4.0639471
405.71  4.9023601
404.71  4.9647076
403.71  4.1751396
402.71  4.3268289
401.71  4.6937034
400.71  5.3490297
399.71  5.4743121
398.71  6.4281691
397.71  4.6311536
396.71  4.6471367
395.71  5.3366696
394.71  4.2109604
393.71  4.114646
392.71  4.5243003
391.71  5.0086629
390.71  4.5806248
389.71  3.4157967
388.71  4.241546
387.71  4.1165953
386.71  3.713176
385.71  4.252586
384.71  3.8866252
383.71  3.5009191
382.71  3.9548705
381.71  4.4555956
380.71  4.1878309
379.71  4.2966686
378.71  3.7950986
377.71  3.8660405
376.71  4.2138382
375.71  4.5598396
374.71  3.8843272
373.71  4.3868292
372.71  3.4649078
371.71  3.2989636
370.71  4.3323796
369.71  4.0553751
368.71  3.876437
367.71  4.7889724
366.71  5.8994861
365.71  5.1207129
364.71  3.8661345
363.71  4.2288242
362.71  3.7467532
361.71  3.5565884
360.71  4.2951429
359.71  4.0590867
358.71  4.7449525
357.71  3.6374237
356.71  4.1150935
355.71  3.8959507
354.71  4.2467121
353.71  4.6230794
352.71  4.8064614
351.71  5.2555465
350.71  5.2465814
349.71  4.7577353
348.71  4.6919271
347.71  4.5446446
346.71  3.8613219
345.71  3.4289549
344.71  4.288765
343.71  4.8585772
342.71  4.5883299
341.71  4.1847067
340.71  5.0087718
339.71  4.2936224
338.71  3.9906201
337.71  3.6871447
336.71  4.2104246
335.71  4.9854544
334.71  4.2850818
333.71  5.0780223
332.71  5.1529268
331.71  4.274325
330.71  5.2937654
329.71  4.4868015
328.71  3.9347739
327.71  4.5964043
326.71  5.24129
325.71  4.7064636
324.71  4.9271067
323.71  4.3678574
322.71  4.1108563
321.71  4.5238653
320.71  4.6821294
319.71  5.0067636
318.71  5.1773282
317.71  5.0280189
316.71  4.8287676
315.71  4.3469557
314.71  4.1710122
313.71  4.5901894
312.71  4.7681595
311.71  4.9444991
310.71  5.1232953
309.71  4.6708441
308.71  5.7397251
307.71  4.777731
306.71  4.6876618
305.71  4.3377601
304.71  4.25947
303.71  4.6120951
302.71  5.1346788
301.71  5.1533415
300.71  4.6242678
299.71  4.7267336
298.71  4.2782072
297.71  4.7606583
296.71  4.3607421
295.71  4.5461008
294.71  5.7794556
293.71  6.8578095
292.71  4.1264862
291.71  4.5637909
290.71  5.1471101
289.71  4.6906447
288.71  5.2823447
287.71  5.4182302
286.71  6.5677237
285.71  9.0194903
284.71  9.1421139
283.71  5.9205515
282.71  4.4264123
281.71  3.9218262
280.71  5.058467
279.71  5.4458542
278.71  4.6922457
277.71  5.6439233
276.71  5.8826217
275.71  4.9171538
274.71  4.812386
273.71  4.8752372
272.71  5.7633268
271.71  4.4428751
270.71  4.5299822
269.71  4.9720987
268.71  4.7663109
267.71  5.3422126
266.71  5.0894381
265.71  4.824932
264.71  5.2794667
263.71  6.603492
262.71  6.3007945
261.71  5.2717322
260.71  5.457493
259.71  5.3770881
258.71  5.4067934
257.71  5.1212864
256.71  5.2582423
255.71  4.5311184
254.71  4.5771633
253.71  4.9206922
252.71  5.6408388
251.71  4.4635222
250.71  5.3690663
249.71  5.2787353
248.71  5.2849265
247.71  5.13421
246.71  4.4301875
245.71  5.3281614
244.71  5.6831781
243.71  6.3621397
242.71  5.8374436
241.71  5.7649176
240.71  5.4995602
239.71  5.4956053
238.71  4.6887533
237.71  6.1176431
236.71  4.5136816
235.71  5.445232
234.71  5.5849723
233.71  5.5684394
232.71  5.1790011
231.71  6.6787151
230.71  5.7976278
229.71  5.2064399
228.71  5.7356103
227.71  5.0785271
226.71  5.412532
225.71  6.5722544
224.71  5.1414127
223.71  5.3935072
222.71  5.7815517
221.71  5.634179
220.71  5.2246396
219.71  5.7507969
218.71  4.8411825
217.71  4.7309251
216.71  5.6820829
215.71  5.0001024
214.71  5.2465456
213.71  5.561195
212.71  5.9189995
211.71  7.9234341
210.71  7.2926214
209.71  5.3442418
208.71  4.854546
207.71  5.0094653
206.71  5.2740996
205.71  5.1731048
204.71  6.4737633
203.71  5.4650337
202.71  6.0025655
201.71  6.8106241
200.71  6.278705
199.71  6.2110225
198.71  6.1037645
197.71  6.5766305
196.71  6.304554
195.71  6.8716666
194.71  6.4946254
193.71  6.6965439
192.71  5.9972192
191.71  6.4927276
190.71  6.2668306
189.71  6.0016702
188.71  6.0233346
187.71  6.0309312
186.71  5.7593838
185.71  5.8299538
184.71  6.5972565
183.71  6.1586014
182.71  5.5419127
181.71  5.6507417
180.71  6.1183137
179.71  5.9688928
178.71  6.5673125
177.71  5.4391708
176.71  5.5436672
175.71  6.4746101
174.71  6.3383317
173.71  6.5853156
172.71  6.8472393
171.71  7.0548
170.71  6.5334556
169.71  6.3550402
168.71  5.8040583
167.71  7.0221973
166.71  6.5460786
165.71  6.2510606
164.71  6.8980315
163.71  6.8612994
162.71  6.5769357
161.71  6.6355606
160.71  8.0147782
159.71  6.5307259
158.71  6.3919198
157.71  7.4222034
156.71  7.1212559
155.71  8.0847965
154.71  6.6972241
153.71  7.1703353
152.71  7.4012884
151.71  7.9018184
150.71  7.0664395
149.71  7.3075148
148.71  7.6442859
147.71  6.6146587
146.71  7.6367634
145.71  8.2943038
144.71  8.4273773
143.71  7.3214311
142.71  7.6188309
141.71  7.6631409
140.71  7.7327093
139.71  7.5300028
138.71  8.3492946
137.71  7.3197109
136.71  7.8574153
135.71  8.5878509
134.71  8.037513
133.71  8.0080396
132.71  8.2056309
131.71  7.1216108
130.71  7.0117466
129.71  6.314666
128.71  8.2984243
127.71  6.4842306
126.71  8.5957641
125.71  9.5893677
124.71  11.867895
123.71  16.211031
122.71  17.200795
121.71  12.582512
120.71  8.8235059
119.71  8.5579832
118.71  8.4831178
117.71  7.5201845
116.71  7.2386121
115.71  6.782291
114.71  6.4116322
113.71  6.5039165
112.71  6.0971677
111.71  5.2943456
110.71  6.5391563
109.71  7.3459591
108.71  7.836955
107.71  7.3905987
106.71  8.5363483
105.71  8.5685308
104.71  7.81933
103.71  8.8940695
102.71  7.5026001
101.71  7.284403
100.71  8.229381
99.71  8.1416178
98.71  9.1595223
97.71  8.233821
96.71  7.8532041
95.71  8.1250161
94.71  8.3162439
93.71  7.8040656
92.71  8.079422
91.71  8.7034395
90.71  7.9519649
89.71  7.2446566
88.71  6.3121561
87.71  7.8933774
86.71  6.732914
85.71  5.9300646
84.71  6.3778952
83.71  7.2399668
82.71  7.4718912
81.71  8.3792874
80.71  8.3484515
79.71  11.721731
78.71  19.070991
77.71  23.729549
76.71  25.440542
75.71  30.917109
74.71  19.496909
73.71  8.8754373
72.71  4.9604263
71.71  4.0455682
70.71  2.6968117
69.71  2.4809533
68.71  2.7024546
67.71  2.1453079
66.71  2.1879722
65.71  1.8607155
64.71  2.0867709
63.71  1.8134423
62.71  1.5273609
61.71  1.953162
60.71  2.0106061
59.71  2.4054337
58.71  2.2310404
57.71  1.8686231
56.71  1.4270792
55.71  1.5333943
54.71  1.6010614
53.71  1.8325357
52.71  1.7834661
51.71  2.2113897
50.71  2.2410082
49.71  2.131713
48.71  2.3358263
47.71  1.9279931
46.71  1.7615004
45.71  2.3727446
44.71  1.8581655
43.71  1.8065684
42.71  1.9281082
41.71  1.7836067
40.71  2.1568447
39.71  2.3841461
38.71  2.0110848
37.71  2.3228595
36.71  1.9797085
35.71  2.5149941
34.71  1.7771218
33.71  2.154414
32.71  2.5071597
31.71  1.5275047
30.71  2.6282872
29.71  2.7814631
28.71  2.0713712
27.71  2.2049199
26.71  2.7578383
25.71  2.7398809
24.71  2.1394051
23.71  2.463084
22.71  2.0363448
21.71  2.7003705
20.71  2.856669
19.71  2.6647763
18.71  2.6083012
17.71  2.6400561
16.71  2.4760241
15.71  2.1640217
14.71  1.9327542
13.71  1.5565246
12.71  2.0333914
11.71  1.6541776
10.71  1.5340613
9.71  1.9237707
8.71  1.819874
7.71  2.3357038
6.71  3.482613
5.71  5.8975435
4.71  9.0760402
3.71  12.922164
2.71  9.0268501
1.71  1.5788717
0.71  1.0077281
-0.29  0.48666132
-1.29  0.3954795
-2.29  0.37566841
-3.29  0.36970237

# Region:            C_1s(2)
# Spectrum ID:       4
# Acquisition Date:  06/30/22 14:11:47 UTC
# Analysis Method:   XPS
# Analyzer:          Analyzer
# Analyzer Lens:     LargeArea:1.5kV
# Analyzer Slit:     4:3x20\B:open
# Scan Mode:         FixedAnalyzerTransmission
# Curves/Scan:       1
# Values/Curve:      81
# Dwell Time:        0.5
# Excitation Energy: 1486.71
# Binding Energy:    299.71
# Pass Energy:       30
# Bias Voltage:      -1
# Detector Voltage:  1800
# Eff. Workfunction: 4.498
# Source:            XR 50 MF (UXC1000)
# Comment:
# OrdinateRange:     [-18.000000, 18.000000]
#
# Cycle: 0
# Number of Scans: 1
#
# Cycle: 0, Curve: 0
# Acquisition Date: 06/30/22 14:11:47 UTC
#
# ColumnLabels: energy counts/s
#
299.71  3.260355
299.51  3.2552207
299.31  3.3201029
299.11  3.0538896
298.91  3.1735447
298.71  3.1025906
298.51  3.3406496
298.31  3.3618899
298.11  3.1220057
297.91  3.1739005
297.71  3.213447
297.51  3.2502343
297.31  3.6023108
297.11  3.2416313
296.91  3.1576715
296.71  3.3301285
296.51  3.1991817
296.31  3.3433093
296.11  3.1760625
295.91  3.7112755
295.71  3.1587455
295.51  3.225984
295.31  2.9827052
295.11  3.1129563
294.91  3.2310667
294.71  3.0505535
294.51  3.6107851
294.31  3.9212293
294.11  3.3795696
293.91  3.0509017
293.71  2.9945219
293.51  3.2871354
293.31  3.5049007
293.11  3.3101021
292.91  3.3378754
292.71  3.4174838
292.51  3.4502489
292.31  3.3028519
292.11  3.4497934
291.91  3.6615389
291.71  4.0357782
291.51  4.1646876
291.31  3.6763547
291.11  3.5600349
290.91  3.2077634
290.71  3.6466311
290.51  3.8686011
290.31  3.7934742
290.11  3.7628562
289.91  3.7649466
289.71  3.3126129
289.51  3.4427992
289.31  3.5751003
289.11  3.6424435
288.91  3.6790788
288.71  3.5043585
288.51  3.6402067
288.31  3.7960259
288.11  3.8091496
287.91  3.7527828
287.71  4.3888337
287.51  4.7246014
287.31  4.8148217
287.11  4.6416647
286.91  4.8824579
286.71  4.9075529
286.51  5.4901605
286.31  5.3505396
286.11  6.2836004
285.91  6.7952666
285.71  7.5250357
285.51  8.2955124
285.31  8.7515541
