# Created by:        SpecsLab Prodigy, Version 4.60.2-r85849 
#
# XY-Serializer Export Settings:
#   Comment Prefix:           #
#   Output meta data:         yes
#   Energy Axis:              Binding Energy
#   Count Rate:               Counts per Second
#   Separate Scan Data:       no
#   Separate Channel Data:    no
#   External Channel Data:    yes
#   Transmission Function:    no
#   ErrorBar:                 no
#   Operation Results:        yes
#   Time Zone Format:         UTC
#
# Group:             Spectrum Group
#
# Region:            Ba3d
# Acquisition Date:  05/21/22 06:16:21 UTC
# Analysis Method:   XPS
# Analyzer:          Phoibos 100 R6
# Analyzer Lens:     LargeArea:1.5kV
# Analyzer Slit:     1:0.2x20\B:open
# Scan Mode:         FixedAnalyzerTransmission
# Curves/Scan:       1
# Values/Curve:      121
# Dwell Time:        0.8
# Excitation Energy: 1486.61
# Binding Energy:    789
# Pass Energy:       30
# Bias Voltage:      90
# Detector Voltage:  2600
# Eff. Workfunction: 4.309
# Source:            X-Ray Dummy
# Comment:           
#
# Cycle: 0
# Number of Scans: 50
#
# Cycle: 0, Curve: 0
# Acquisition Date: 05/21/22 06:16:21 UTC
#
# ColumnLabels: energy counts/s
#
789  1908.025
788.9  1916.225
788.8  1919.025
788.7  1915.3
788.6  1919.275
788.5  1912.775
788.4  1918.3
788.3  1916.775
788.2  1906.925
788.1  1910.125
788  1915.7
787.9  1917.65
787.8  1903.875
787.7  1911.675
787.6  1903.25
787.5  1914.05
787.4  1917.7
787.3  1901.3
787.2  1912.325
787.1  1913.525
787  1903.225
786.9  1899.65
786.8  1909.225
786.7  1921.85
786.6  1913.1
786.5  1917.9
786.4  1918.65
786.3  1922.925
786.2  1926.95
786.1  1932.4
786  1937.975
785.9  1946.4
785.8  1959.725
785.7  1964.325
785.6  1970.1
785.5  1982.25
785.4  1994.175
785.3  2016.625
785.2  2018.925
785.1  2053.025
785  2086.1
784.9  2118.825
784.8  2155.275
784.7  2204.6
784.6  2234.85
784.5  2284.8
784.4  2343.15
784.3  2399
784.2  2490.5
784.1  2562.425
784  2614.925
783.9  2711
783.8  2794.075
783.7  2868.05
783.6  2930.25
783.5  3011.225
783.4  3078.95
783.3  3136.75
783.2  3158.325
783.1  3189.85
783  3215.55
782.9  3215.275
782.8  3206.975
782.7  3177.375
782.6  3126.7
782.5  3067.075
782.4  2995.925
782.3  2917.875
782.2  2841.975
782.1  2762.575
782  2671.725
781.9  2577.525
781.8  2513.05
781.7  2450.1
781.6  2363.3
781.5  2286.75
781.4  2226.9
781.3  2188.225
781.2  2124.075
781.1  2086.975
781  2048.325
780.9  2011.35
780.8  1992
780.7  1952.425
780.6  1954.175
780.5  1930.775
780.4  1907.8
780.3  1898.875
780.2  1898.95
780.1  1872.65
780  1866.95
779.9  1865.5
779.8  1848.7
779.7  1836.55
779.6  1848.65
779.5  1831.75
779.4  1841.05
779.3  1827.025
779.2  1828.1
779.1  1815.575
779  1824
778.9  1807.15
778.8  1814.65
778.7  1826.35
778.6  1799.175
778.5  1806.55
778.4  1806.45
778.3  1803.975
778.2  1806.55
778.1  1796.75
778  1795.375
777.9  1804.15
777.8  1797.475
777.7  1799.7
777.6  1796.675
777.5  1786.025
777.4  1793.05
777.3  1796.625
777.2  1805.475
777.1  1807.225
777  1795.875

# Region:            C1s
# Acquisition Date:  05/21/22 09:16:37 UTC
# Analysis Method:   XPS
# Analyzer:          Phoibos 100 R6
# Analyzer Lens:     LargeArea:1.5kV
# Analyzer Slit:     1:0.2x20\B:open
# Scan Mode:         FixedAnalyzerTransmission
# Curves/Scan:       1
# Values/Curve:      151
# Dwell Time:        0.8
# Excitation Energy: 1486.61
# Binding Energy:    295
# Pass Energy:       30
# Bias Voltage:      90
# Detector Voltage:  2600
# Eff. Workfunction: 4.309
# Source:            X-Ray Dummy
# Comment:           
#
# Cycle: 0
# Number of Scans: 95
#
# Cycle: 0, Curve: 0
# Acquisition Date: 05/21/22 09:16:37 UTC
#
# ColumnLabels: energy counts/s
#
295  571.59211
294.9  562.90789
294.8  561.32895
294.7  565.53947
294.6  567.17105
294.5  569.11842
294.4  564.26316
294.3  560.40789
294.2  564.25
294.1  569.19737
294  561.63158
293.9  568.82895
293.8  566.88158
293.7  558.81579
293.6  563.48684
293.5  565.73684
293.4  567.92105
293.3  564.63158
293.2  568.36842
293.1  568.80263
293  566.06579
292.9  568.48684
292.8  566.27632
292.7  564.11842
292.6  567.18421
292.5  568.02632
292.4  568.39474
292.3  564.55263
292.2  571.40789
292.1  569.26316
292  571.48684
291.9  573.02632
291.8  571.19737
291.7  570.90789
291.6  576.40789
291.5  577.63158
291.4  575.44737
291.3  582.19737
291.2  579.01316
291.1  582.32895
291  586.69737
290.9  583.71053
290.8  586.84211
290.7  583.38158
290.6  586.88158
290.5  590.40789
290.4  591.13158
290.3  592.40789
290.2  596.64474
290.1  597.21053
290  599.28947
289.9  601.26316
289.8  602.68421
289.7  607.18421
289.6  612.60526
289.5  613.84211
289.4  621.85526
289.3  623.77632
289.2  630.38158
289.1  639.77632
289  648.26316
288.9  645.03947
288.8  660.13158
288.7  666.22368
288.6  676.86842
288.5  687.38158
288.4  704.07895
288.3  717.28947
288.2  720.35526
288.1  739.67105
288  751.05263
287.9  762.76316
287.8  769.76316
287.7  788.06579
287.6  801.47368
287.5  811.02632
287.4  816.18421
287.3  825.55263
287.2  820.48684
287.1  823.22368
287  814.59211
286.9  807.84211
286.8  801.52632
286.7  785.25
286.6  773.53947
286.5  756.60526
286.4  738.59211
286.3  725.35526
286.2  706.72368
286.1  689.53947
286  669.48684
285.9  659.39474
285.8  645.46053
285.7  628.11842
285.6  615.35526
285.5  608.75
285.4  602.26316
285.3  599.28947
285.2  587.77632
285.1  582.14474
285  575.64474
284.9  575.09211
284.8  569.32895
284.7  570.92105
284.6  563.25
284.5  568.82895
284.4  562.13158
284.3  562.90789
284.2  561.71053
284.1  559.75
284  557.96053
283.9  559.28947
283.8  554.5
283.7  554.27632
283.6  554.69737
283.5  557.27632
283.4  560.06579
283.3  554.32895
283.2  554.30263
283.1  560.46053
283  551.73684
282.9  556.46053
282.8  560.65789
282.7  555.46053
282.6  559.14474
282.5  562.63158
282.4  559.42105
282.3  563.21053
282.2  564.85526
282.1  561.17105
282  561.90789
281.9  565.17105
281.8  568.81579
281.7  563.18421
281.6  570.53947
281.5  565.65789
281.4  562.67105
281.3  563.32895
281.2  568.73684
281.1  564.64474
281  570.97368
280.9  563.60526
280.8  569.44737
280.7  563.97368
280.6  565.71053
280.5  567.5
280.4  562.94737
280.3  559.26316
280.2  559.64474
280.1  562.25
280  557.92105

# Region:            O1s
# Acquisition Date:  05/20/22 21:34:40 UTC
# Analysis Method:   XPS
# Analyzer:          Phoibos 100 R6
# Analyzer Lens:     LargeArea:1.5kV
# Analyzer Slit:     1:0.2x20\B:open
# Scan Mode:         FixedAnalyzerTransmission
# Curves/Scan:       1
# Values/Curve:      141
# Dwell Time:        0.8
# Excitation Energy: 1486.61
# Binding Energy:    541
# Pass Energy:       30
# Bias Voltage:      90
# Detector Voltage:  2600
# Eff. Workfunction: 4.309
# Source:            X-Ray Dummy
# Comment:           
#
# Cycle: 0
# Number of Scans: 20
#
# Cycle: 0, Curve: 0
# Acquisition Date: 05/20/22 21:34:40 UTC
#
# ColumnLabels: energy counts/s
#
541  914.8125
540.9  915.5
540.8  908.3125
540.7  934.8125
540.6  931
540.5  924.625
540.4  920.125
540.3  928.875
540.2  953.0625
540.1  954.0625
540  953.125
539.9  965.6875
539.8  978.0625
539.7  989.0625
539.6  998
539.5  1002.3125
539.4  1023.9375
539.3  1017.125
539.2  1030
539.1  1038.4375
539  1056.125
538.9  1062.0625
538.8  1080.125
538.7  1090.6875
538.6  1097.5625
538.5  1122.8125
538.4  1133.6875
538.3  1162.1875
538.2  1174.8125
538.1  1191.625
538  1213.5625
537.9  1244.625
537.8  1276.1875
537.7  1309.125
537.6  1371.1875
537.5  1425.5625
537.4  1514.625
537.3  1576
537.2  1700.5625
537.1  1816.9375
537  1951.875
536.9  2119.125
536.8  2310.5625
536.7  2574.6875
536.6  2848.375
536.5  3172.1875
536.4  3512.9375
536.3  3892.625
536.2  4346.9375
536.1  4795
536  5299.25
535.9  5789.125
535.8  6333.75
535.7  6779.125
535.6  7288.625
535.5  7751.8125
535.4  8136.125
535.3  8476.5625
535.2  8693
535.1  8809.625
535  8848.9375
534.9  8704.5625
534.8  8561.4375
534.7  8248.5625
534.6  7928.4375
534.5  7438.5
534.4  6892.125
534.3  6336.625
534.2  5774.75
534.1  5171.6875
534  4652.9375
533.9  4184.5
533.8  3669.5
533.7  3266.125
533.6  2893.875
533.5  2566.75
533.4  2313.125
533.3  2064.5625
533.2  1890
533.1  1723.75
533  1616.125
532.9  1497.375
532.8  1422.5625
532.7  1346.75
532.6  1291
532.5  1251.375
532.4  1193.5625
532.3  1158.3125
532.2  1120.875
532.1  1106.0625
532  1070.6875
531.9  1055.25
531.8  1013.25
531.7  1006.0625
531.6  968.8125
531.5  977.5
531.4  947.75
531.3  950.3125
531.2  920.0625
531.1  914.875
531  897.125
530.9  895.125
530.8  898.875
530.7  872.375
530.6  880.125
530.5  890.9375
530.4  859.5
530.3  871.5
530.2  864.375
530.1  853.9375
530  857.1875
529.9  868.5625
529.8  850.1875
529.7  849.1875
529.6  842.9375
529.5  847.0625
529.4  856.5
529.3  850.0625
529.2  833.5625
529.1  850.4375
529  839.375
528.9  848.8125
528.8  831.125
528.7  826.4375
528.6  832.1875
528.5  825.8125
528.4  823.5
528.3  812.5625
528.2  826.4375
528.1  819.25
528  821.375
527.9  814.875
527.8  812.3125
527.7  827.1875
527.6  817.875
527.5  832.75
527.4  843.125
527.3  854.0625
527.2  861.9375
527.1  864.3125
527  870.625

# Region:            N1s
# Acquisition Date:  05/21/22 09:18:16 UTC
# Analysis Method:   XPS
# Analyzer:          Phoibos 100 R6
# Analyzer Lens:     LargeArea:1.5kV
# Analyzer Slit:     1:0.2x20\B:open
# Scan Mode:         FixedAnalyzerTransmission
# Curves/Scan:       1
# Values/Curve:      121
# Dwell Time:        0.8
# Excitation Energy: 1486.61
# Binding Energy:    409
# Pass Energy:       30
# Bias Voltage:      90
# Detector Voltage:  2600
# Eff. Workfunction: 4.309
# Source:            X-Ray Dummy
# Comment:           
#
# Cycle: 0
# Number of Scans: 95
#
# Cycle: 0, Curve: 0
# Acquisition Date: 05/21/22 09:18:16 UTC
#
# ColumnLabels: energy counts/s
#
409  598.46053
408.9  590.40789
408.8  595.07895
408.7  594.65789
408.6  585.76316
408.5  596.68421
408.4  589.60526
408.3  594.44737
408.2  591.44737
408.1  596.27632
408  593.23684
407.9  596.38158
407.8  593.13158
407.7  594.97368
407.6  591.56579
407.5  592.93421
407.4  597.82895
407.3  589.13158
407.2  591.44737
407.1  592.90789
407  591.73684
406.9  592.39474
406.8  595
406.7  600.47368
406.6  595.27632
406.5  595.47368
406.4  591.22368
406.3  595.81579
406.2  593.13158
406.1  593.36842
406  596.81579
405.9  592.93421
405.8  592.11842
405.7  595.57895
405.6  592.86842
405.5  595
405.4  591.69737
405.3  591.47368
405.2  598
405.1  595.35526
405  596.68421
404.9  594.67105
404.8  595.13158
404.7  596.27632
404.6  596.72368
404.5  596.13158
404.4  594.52632
404.3  593.72368
404.2  601.68421
404.1  600.48684
404  596.63158
403.9  598.97368
403.8  599.68421
403.7  600.56579
403.6  602.31579
403.5  602.02632
403.4  608
403.3  603.32895
403.2  599.48684
403.1  603.98684
403  605.17105
402.9  610.40789
402.8  610.34211
402.7  611.5
402.6  608.89474
402.5  610.43421
402.4  608.80263
402.3  613.01316
402.2  606.34211
402.1  607.85526
402  608
401.9  611.75
401.8  605.71053
401.7  608.61842
401.6  609.17105
401.5  606.25
401.4  608.19737
401.3  607.53947
401.2  602.53947
401.1  599.76316
401  601.98684
400.9  602.93421
400.8  598.64474
400.7  597.71053
400.6  598.23684
400.5  601.97368
400.4  599.47368
400.3  592.56579
400.2  598.51316
400.1  591.59211
400  594.44737
399.9  593.15789
399.8  585.72368
399.7  592.28947
399.6  595.85526
399.5  594.01316
399.4  589.71053
399.3  590.48684
399.2  589.76316
399.1  587.96053
399  589.13158
398.9  589
398.8  587.40789
398.7  588.59211
398.6  588.82895
398.5  586.27632
398.4  585.07895
398.3  588.60526
398.2  594.14474
398.1  586.90789
398  583.34211
397.9  592.56579
397.8  591.42105
397.7  586.03947
397.6  589.30263
397.5  585.23684
397.4  588.68421
397.3  589.42105
397.2  590.01316
397.1  588.32895
397  586.27632

# Region:            Cl2p
# Acquisition Date:  05/21/22 06:21:33 UTC
# Analysis Method:   XPS
# Analyzer:          Phoibos 100 R6
# Analyzer Lens:     LargeArea:1.5kV
# Analyzer Slit:     1:0.2x20\B:open
# Scan Mode:         FixedAnalyzerTransmission
# Curves/Scan:       1
# Values/Curve:      111
# Dwell Time:        0.8
# Excitation Energy: 1486.61
# Binding Energy:    207
# Pass Energy:       30
# Bias Voltage:      90
# Detector Voltage:  2600
# Eff. Workfunction: 4.309
# Source:            X-Ray Dummy
# Comment:           
#
# Cycle: 0
# Number of Scans: 50
#
# Cycle: 0, Curve: 0
# Acquisition Date: 05/21/22 06:21:33 UTC
#
# ColumnLabels: energy counts/s
#
207  550.625
206.9  558.125
206.8  556.025
206.7  555.775
206.6  557.9
206.5  558.4
206.4  562.7
206.3  548.6
206.2  560.375
206.1  558.3
206  557.9
205.9  563.925
205.8  555.475
205.7  566.45
205.6  558.975
205.5  559.55
205.4  556
205.3  558.05
205.2  561.65
205.1  561.125
205  561.225
204.9  557.125
204.8  564.05
204.7  561.15
204.6  567.65
204.5  568.625
204.4  563.275
204.3  571.475
204.2  569.9
204.1  567.175
204  566.95
203.9  568.9
203.8  571.425
203.7  568.55
203.6  581.5
203.5  581.1
203.4  588.425
203.3  581.175
203.2  587.775
203.1  598.3
203  596.75
202.9  600.9
202.8  602.35
202.7  606.475
202.6  618.25
202.5  607.525
202.4  615.075
202.3  618.9
202.2  628.05
202.1  617.975
202  631.275
201.9  628.25
201.8  630.975
201.7  635.75
201.6  631.1
201.5  636.975
201.4  638.8
201.3  634.65
201.2  636.625
201.1  639.55
201  649.575
200.9  651.075
200.8  658.025
200.7  644.825
200.6  649.55
200.5  633.95
200.4  643.4
200.3  639.45
200.2  632.625
200.1  626.875
200  618.925
199.9  617.35
199.8  612.025
199.7  606.375
199.6  604.75
199.5  590.775
199.4  583.35
199.3  577.15
199.2  576.425
199.1  569.425
199  570.375
198.9  567.225
198.8  561.5
198.7  566.775
198.6  561.05
198.5  569.5
198.4  563.35
198.3  557.35
198.2  564.25
198.1  559
198  555.65
197.9  558.45
197.8  560.825
197.7  558.625
197.6  561.65
197.5  558.375
197.4  559.025
197.3  557.575
197.2  557.2
197.1  559.025
197  558.175
196.9  555
196.8  555.575
196.7  564.1
196.6  563.825
196.5  565.65
196.4  565.275
196.3  558.175
196.2  558.425
196.1  570.55
196  563.325

# Region:            overview
# Acquisition Date:  05/20/22 15:29:39 UTC
# Analysis Method:   XPS
# Analyzer:          Phoibos 100 R6
# Analyzer Lens:     MediumArea:1.5kV
# Analyzer Slit:     1:0.2x20\B:open
# Scan Mode:         FixedAnalyzerTransmission
# Curves/Scan:       1
# Values/Curve:      1205
# Dwell Time:        0.2
# Excitation Energy: 1486.61
# Binding Energy:    1200
# Pass Energy:       50
# Bias Voltage:      90
# Detector Voltage:  2600
# Eff. Workfunction: 4.309
# Source:            X-Ray Dummy
# Comment:           
#
# Cycle: 0
# Number of Scans: 1
#
# Cycle: 0, Curve: 0
# Acquisition Date: 05/20/22 15:29:39 UTC
#
# ColumnLabels: energy counts/s
#
1200  2815
1199  2780
1198  2595
1197  3000
1196  2900
1195  2955
1194  2930
1193  2870
1192  2970
1191  2910
1190  3025
1189  2795
1188  2775
1187  2960
1186  2670
1185  2730
1184  2905
1183  2750
1182  2485
1181  2550
1180  2710
1179  2860
1178  2650
1177  2830
1176  2855
1175  2750
1174  2690
1173  2675
1172  2890
1171  2540
1170  2660
1169  2800
1168  2715
1167  2680
1166  2935
1165  2575
1164  2795
1163  2595
1162  2530
1161  2600
1160  2485
1159  2495
1158  2745
1157  2615
1156  2560
1155  2585
1154  2770
1153  2690
1152  2770
1151  2650
1150  2530
1149  2640
1148  2500
1147  2370
1146  2465
1145  2460
1144  2615
1143  2620
1142  2340
1141  2550
1140  2560
1139  2625
1138  2520
1137  2745
1136  2390
1135  2465
1134  2490
1133  2355
1132  2375
1131  2545
1130  2455
1129  2530
1128  2565
1127  2450
1126  2520
1125  2575
1124  2430
1123  2520
1122  2500
1121  2640
1120  2655
1119  2730
1118  2560
1117  2465
1116  2455
1115  2655
1114  2320
1113  2465
1112  2515
1111  2375
1110  2425
1109  2570
1108  2520
1107  2570
1106  2660
1105  2675
1104  2350
1103  2515
1102  2610
1101  2465
1100  2400
1099  2275
1098  2635
1097  2410
1096  2590
1095  2270
1094  2285
1093  2610
1092  2485
1091  2480
1090  2430
1089  2385
1088  2430
1087  2515
1086  2310
1085  2445
1084  2475
1083  2570
1082  2395
1081  2370
1080  2405
1079  2450
1078  2380
1077  2400
1076  2515
1075  2615
1074  2620
1073  2650
1072  2430
1071  2535
1070  2355
1069  2440
1068  2680
1067  2410
1066  2680
1065  2605
1064  2740
1063  2485
1062  2340
1061  2640
1060  2445
1059  2460
1058  2325
1057  2430
1056  2540
1055  2440
1054  2460
1053  2160
1052  2405
1051  2260
1050  2285
1049  2550
1048  2525
1047  2305
1046  2360
1045  2435
1044  2455
1043  2345
1042  2200
1041  2310
1040  2255
1039  2440
1038  2265
1037  2290
1036  2410
1035  2375
1034  2240
1033  2485
1032  2470
1031  2435
1030  2395
1029  2390
1028  2500
1027  2405
1026  2265
1025  2395
1024  2230
1023  2520
1022  2470
1021  2580
1020  2340
1019  2565
1018  2395
1017  2525
1016  2435
1015  2365
1014  2195
1013  2350
1012  2425
1011  2335
1010  2300
1009  2510
1008  2410
1007  2605
1006  2605
1005  2665
1004  2505
1003  2645
1002  2415
1001  2360
1000  2485
999  2375
998  2335
997  2390
996  2440
995  2105
994  2075
993  2235
992  2215
991  2120
990  2505
989  2155
988  2045
987  2300
986  2490
985  2630
984  2560
983  2905
982  2970
981  2945
980  2605
979  2485
978  2260
977  2080
976  1935
975  1895
974  1855
973  1585
972  1615
971  1445
970  1415
969  1400
968  1350
967  1415
966  1465
965  1290
964  1400
963  1455
962  1390
961  1575
960  1455
959  1430
958  1470
957  1550
956  1515
955  1365
954  1480
953  1655
952  1315
951  1395
950  1515
949  1340
948  1590
947  1265
946  1430
945  1365
944  1400
943  1285
942  1445
941  1315
940  1460
939  1310
938  1415
937  1445
936  1570
935  1495
934  1485
933  1455
932  1465
931  1515
930  1310
929  1340
928  1360
927  1490
926  1530
925  1535
924  1465
923  1395
922  1345
921  1685
920  1445
919  1530
918  1480
917  1370
916  1415
915  1470
914  1445
913  1465
912  1355
911  1465
910  1630
909  1705
908  1715
907  1580
906  1660
905  1835
904  1675
903  1745
902  1735
901  1415
900  1570
899  1565
898  1475
897  1475
896  1540
895  1690
894  1680
893  1615
892  1575
891  1630
890  1510
889  1410
888  1500
887  1465
886  1480
885  1320
884  1490
883  1475
882  1405
881  1665
880  1425
879  1605
878  1490
877  1245
876  1480
875  1440
874  1480
873  1335
872  1410
871  1475
870  1320
869  1375
868  1425
867  1235
866  1405
865  1310
864  1280
863  1280
862  1485
861  1580
860  1435
859  1415
858  1440
857  1360
856  1245
855  1460
854  1405
853  1485
852  1485
851  1450
850  1495
849  1410
848  1500
847  1460
846  1475
845  1350
844  1535
843  1330
842  1485
841  1330
840  1545
839  1455
838  1450
837  1470
836  1490
835  1535
834  1335
833  1455
832  1290
831  1405
830  1510
829  1350
828  1525
827  1395
826  1490
825  1545
824  1420
823  1500
822  1555
821  1400
820  1375
819  1405
818  1530
817  1485
816  1570
815  1395
814  1380
813  1320
812  1495
811  1445
810  1515
809  1610
808  1480
807  1370
806  1560
805  1465
804  1480
803  1435
802  1600
801  1560
800  1565
799  1975
798  2100
797  1975
796  1565
795  1670
794  1445
793  1445
792  1495
791  1365
790  1455
789  1625
788  1640
787  1550
786  1550
785  1685
784  1910
783  2360
782  2325
781  1730
780  1635
779  1570
778  1550
777  1375
776  1470
775  1380
774  1380
773  1430
772  1360
771  1450
770  1560
769  1315
768  1455
767  1515
766  1490
765  1515
764  1545
763  1305
762  1345
761  1450
760  1390
759  1560
758  1440
757  1480
756  1240
755  1340
754  1495
753  1350
752  1385
751  1420
750  1585
749  1485
748  1570
747  1355
746  1355
745  1295
744  1470
743  1475
742  1430
741  1450
740  1455
739  1465
738  1545
737  1510
736  1275
735  1385
734  1360
733  1400
732  1480
731  1430
730  1530
729  1380
728  1445
727  1490
726  1310
725  1530
724  1355
723  1550
722  1295
721  1470
720  1445
719  1500
718  1455
717  1470
716  1595
715  1510
714  1520
713  1410
712  1565
711  1665
710  1565
709  1560
708  1345
707  1550
706  1445
705  1485
704  1415
703  1370
702  1395
701  1505
700  1350
699  1495
698  1650
697  1380
696  1600
695  1510
694  1535
693  1445
692  1520
691  1645
690  1535
689  1455
688  1515
687  1580
686  1475
685  1420
684  1470
683  1470
682  1495
681  1580
