# Created by:        SpecsLab Prodigy, Version 4.60.2-r85849 
#
# XY-Serializer Export Settings:
#   Comment Prefix:           #
#   Output meta data:         yes
#   Energy Axis:              Binding Energy
#   Count Rate:               Counts per Second
#   Separate Scan Data:       no
#   Separate Channel Data:    no
#   External Channel Data:    yes
#   Transmission Function:    no
#   ErrorBar:                 no
#   Operation Results:        yes
#   Time Zone Format:         UTC
#
# Group:             Spectrum Group
#
# Region:            Na1s
# Acquisition Date:  06/02/22 09:38:15 UTC
# Analysis Method:   XPS
# Analyzer:          Phoibos 100 R6
# Analyzer Lens:     LargeArea:1.5kV
# Analyzer Slit:     1:0.2x20\B:open
# Scan Mode:         FixedAnalyzerTransmission
# Curves/Scan:       1
# Values/Curve:      251
# Dwell Time:        0.8
# Excitation Energy: 1486.61
# Binding Energy:    1085
# Pass Energy:       30
# Bias Voltage:      90
# Detector Voltage:  2600
# Eff. Workfunction: 4.309
# Source:            X-Ray Dummy
# Comment:           
#
# Cycle: 0
# Number of Scans: 3
#
# Cycle: 0, Curve: 0
# Acquisition Date: 06/02/22 09:38:15 UTC
#
# ColumnLabels: energy counts/s
#
1085  3474.5833
1084.9  3527.9167
1084.8  3485.8333
1084.7  3536.25
1084.6  3465
1084.5  3482.0833
1084.4  3520.4167
1084.3  3512.5
1084.2  3536.25
1084.1  3461.6667
1084  3467.5
1083.9  3523.3333
1083.8  3523.75
1083.7  3497.0833
1083.6  3482.9167
1083.5  3469.5833
1083.4  3520
1083.3  3577.5
1083.2  3480.8333
1083.1  3473.75
1083  3486.6667
1082.9  3521.6667
1082.8  3471.25
1082.7  3506.6667
1082.6  3512.0833
1082.5  3544.5833
1082.4  3453.75
1082.3  3445
1082.2  3521.25
1082.1  3511.25
1082  3504.1667
1081.9  3442.9167
1081.8  3530.8333
1081.7  3513.75
1081.6  3569.1667
1081.5  3523.3333
1081.4  3496.6667
1081.3  3532.5
1081.2  3480.8333
1081.1  3485
1081  3486.25
1080.9  3543.3333
1080.8  3548.3333
1080.7  3478.75
1080.6  3437.5
1080.5  3512.0833
1080.4  3453.75
1080.3  3420.4167
1080.2  3520.4167
1080.1  3497.0833
1080  3438.3333
1079.9  3492.5
1079.8  3485.8333
1079.7  3492.0833
1079.6  3478.75
1079.5  3567.0833
1079.4  3530
1079.3  3578.3333
1079.2  3527.0833
1079.1  3495.4167
1079  3521.25
1078.9  3443.3333
1078.8  3440.8333
1078.7  3533.3333
1078.6  3527.5
1078.5  3495
1078.4  3522.9167
1078.3  3444.5833
1078.2  3423.3333
1078.1  3528.75
1078  3480
1077.9  3555
1077.8  3477.5
1077.7  3425
1077.6  3438.3333
1077.5  3565.4167
1077.4  3472.0833
1077.3  3527.9167
1077.2  3463.3333
1077.1  3544.5833
1077  3498.75
1076.9  3486.25
1076.8  3555
1076.7  3523.3333
1076.6  3448.75
1076.5  3512.9167
1076.4  3441.25
1076.3  3569.5833
1076.2  3537.5
1076.1  3504.5833
1076  3468.75
1075.9  3478.75
1075.8  3541.6667
1075.7  3487.0833
1075.6  3486.6667
1075.5  3472.5
1075.4  3463.3333
1075.3  3507.5
1075.2  3560.4167
1075.1  3556.25
1075  3479.5833
1074.9  3441.6667
1074.8  3484.5833
1074.7  3431.25
1074.6  3511.25
1074.5  3466.25
1074.4  3547.5
1074.3  3548.75
1074.2  3475.8333
1074.1  3484.1667
1074  3530.4167
1073.9  3515
1073.8  3508.75
1073.7  3458.75
1073.6  3434.1667
1073.5  3564.1667
1073.4  3448.75
1073.3  3421.25
1073.2  3534.5833
1073.1  3509.1667
1073  3475.4167
1072.9  3519.5833
1072.8  3440
1072.7  3542.0833
1072.6  3482.5
1072.5  3479.1667
1072.4  3478.3333
1072.3  3472.0833
1072.2  3462.0833
1072.1  3530
1072  3422.5
1071.9  3494.1667
1071.8  3495.8333
1071.7  3508.3333
1071.6  3461.6667
1071.5  3474.1667
1071.4  3537.9167
1071.3  3471.6667
1071.2  3482.0833
1071.1  3534.1667
1071  3462.9167
1070.9  3492.0833
1070.8  3460.4167
1070.7  3411.6667
1070.6  3492.9167
1070.5  3479.1667
1070.4  3467.9167
1070.3  3501.6667
1070.2  3587.9167
1070.1  3432.0833
1070  3445.4167
1069.9  3422.0833
1069.8  3490
1069.7  3511.25
1069.6  3431.25
1069.5  3412.5
1069.4  3531.25
1069.3  3425.8333
1069.2  3476.25
1069.1  3474.1667
1069  3495
1068.9  3478.75
1068.8  3571.25
1068.7  3513.75
1068.6  3606.25
1068.5  3532.5
1068.4  3539.1667
1068.3  3420
1068.2  3529.5833
1068.1  3469.5833
1068  3461.6667
1067.9  3444.5833
1067.8  3511.25
1067.7  3492.0833
1067.6  3496.6667
1067.5  3440.4167
1067.4  3486.6667
1067.3  3463.3333
1067.2  3515
1067.1  3496.25
1067  3462.5
1066.9  3554.5833
1066.8  3457.5
1066.7  3517.5
1066.6  3503.3333
1066.5  3525
1066.4  3450.4167
1066.3  3558.3333
1066.2  3557.0833
1066.1  3508.3333
1066  3488.75
1065.9  3470.8333
1065.8  3564.5833
1065.7  3441.6667
1065.6  3505
1065.5  3566.6667
1065.4  3507.5
1065.3  3514.1667
1065.2  3460.4167
1065.1  3486.25
1065  3442.9167
1064.9  3452.5
1064.8  3531.6667
1064.7  3507.5
1064.6  3524.1667
1064.5  3540.4167
1064.4  3554.5833
1064.3  3507.0833
1064.2  3507.5
1064.1  3557.0833
1064  3479.1667
1063.9  3467.5
1063.8  3470.8333
1063.7  3437.0833
1063.6  3484.5833
1063.5  3485
1063.4  3490.8333
1063.3  3507.5
1063.2  3498.3333
1063.1  3487.9167
1063  3543.3333
1062.9  3525.4167
1062.8  3522.5
1062.7  3417.5
1062.6  3442.0833
1062.5  3504.5833
1062.4  3470.4167
1062.3  3470
1062.2  3548.75
1062.1  3493.75
1062  3502.5
1061.9  3435.8333
1061.8  3506.25
1061.7  3549.1667
1061.6  3524.1667
1061.5  3488.75
1061.4  3449.5833
1061.3  3434.1667
1061.2  3488.3333
1061.1  3435.4167
1061  3436.6667
1060.9  3474.1667
1060.8  3474.5833
1060.7  3455
1060.6  3458.75
1060.5  3486.25
1060.4  3521.6667
1060.3  3453.3333
1060.2  3449.1667
1060.1  3428.75
1060  3503.75

# Region:            F1s
# Acquisition Date:  06/02/22 09:40:58 UTC
# Analysis Method:   XPS
# Analyzer:          Phoibos 100 R6
# Analyzer Lens:     LargeArea:1.5kV
# Analyzer Slit:     1:0.2x20\B:open
# Scan Mode:         FixedAnalyzerTransmission
# Curves/Scan:       1
# Values/Curve:      201
# Dwell Time:        0.8
# Excitation Energy: 1486.61
# Binding Energy:    705
# Pass Energy:       30
# Bias Voltage:      90
# Detector Voltage:  2600
# Eff. Workfunction: 4.309
# Source:            X-Ray Dummy
# Comment:           
#
# Cycle: 0
# Number of Scans: 3
#
# Cycle: 0, Curve: 0
# Acquisition Date: 06/02/22 09:40:58 UTC
#
# ColumnLabels: energy counts/s
#
705  1745
704.9  1692.0833
704.8  1666.6667
704.7  1699.5833
704.6  1678.75
704.5  1694.5833
704.4  1750.4167
704.3  1701.25
704.2  1664.1667
704.1  1740.4167
704  1685.8333
703.9  1729.1667
703.8  1744.5833
703.7  1678.3333
703.6  1703.3333
703.5  1655.8333
703.4  1650
703.3  1702.5
703.2  1650
703.1  1639.5833
703  1680.4167
702.9  1686.25
702.8  1683.3333
702.7  1650.8333
702.6  1647.5
702.5  1750
702.4  1695
702.3  1647.9167
702.2  1690
702.1  1679.1667
702  1693.75
701.9  1712.0833
701.8  1713.3333
701.7  1676.25
701.6  1694.1667
701.5  1650.8333
701.4  1697.5
701.3  1707.5
701.2  1637.0833
701.1  1710
701  1688.3333
700.9  1665.8333
700.8  1686.25
700.7  1748.3333
700.6  1679.5833
700.5  1703.75
700.4  1690.4167
700.3  1679.5833
700.2  1649.5833
700.1  1702.9167
700  1700
699.9  1671.6667
699.8  1709.5833
699.7  1636.25
699.6  1650
699.5  1736.25
699.4  1703.3333
699.3  1697.5
699.2  1683.75
699.1  1689.5833
699  1696.25
698.9  1648.75
698.8  1664.1667
698.7  1680.4167
698.6  1663.3333
698.5  1718.3333
698.4  1672.0833
698.3  1680.8333
698.2  1724.1667
698.1  1707.5
698  1710
697.9  1722.0833
697.8  1671.25
697.7  1704.5833
697.6  1663.3333
697.5  1663.75
697.4  1663.3333
697.3  1685.8333
697.2  1677.0833
697.1  1646.25
697  1677.5
696.9  1685.4167
696.8  1702.0833
696.7  1640.8333
696.6  1699.1667
696.5  1717.0833
696.4  1662.5
696.3  1737.0833
696.2  1675
696.1  1702.0833
696  1677.0833
695.9  1673.75
695.8  1692.9167
695.7  1670.4167
695.6  1656.25
695.5  1692.9167
695.4  1738.75
695.3  1651.6667
695.2  1697.9167
695.1  1698.3333
695  1715
694.9  1711.6667
694.8  1700.8333
694.7  1633.3333
694.6  1638.75
694.5  1696.6667
694.4  1652.9167
694.3  1667.0833
694.2  1711.25
694.1  1709.5833
694  1705
693.9  1687.9167
693.8  1685
693.7  1696.6667
693.6  1631.25
693.5  1620.8333
693.4  1665
693.3  1692.9167
693.2  1664.1667
693.1  1722.5
693  1661.6667
692.9  1680.8333
692.8  1697.5
692.7  1656.6667
692.6  1701.6667
692.5  1666.6667
692.4  1690.4167
692.3  1663.3333
692.2  1692.9167
692.1  1676.25
692  1678.75
691.9  1699.1667
691.8  1721.6667
691.7  1652.0833
691.6  1689.1667
691.5  1639.1667
691.4  1661.6667
691.3  1727.0833
691.2  1715.4167
691.1  1701.25
691  1673.3333
690.9  1669.1667
690.8  1658.3333
690.7  1724.1667
690.6  1685
690.5  1700.4167
690.4  1733.3333
690.3  1666.6667
690.2  1676.6667
690.1  1644.1667
690  1682.0833
689.9  1720.4167
689.8  1663.3333
689.7  1647.0833
689.6  1676.6667
689.5  1681.6667
689.4  1724.5833
689.3  1657.9167
689.2  1699.1667
689.1  1687.0833
689  1660.8333
688.9  1642.5
688.8  1679.5833
688.7  1678.75
688.6  1681.6667
688.5  1703.75
688.4  1675.4167
688.3  1659.1667
688.2  1665.4167
688.1  1681.6667
688  1699.5833
687.9  1685
687.8  1668.3333
687.7  1677.5
687.6  1673.3333
687.5  1660
687.4  1686.6667
687.3  1727.0833
687.2  1717.0833
687.1  1711.25
687  1641.6667
686.9  1697.9167
686.8  1692.5
686.7  1654.1667
686.6  1641.25
686.5  1695.4167
686.4  1656.25
686.3  1709.1667
686.2  1645.4167
686.1  1678.3333
686  1681.6667
685.9  1683.75
685.8  1702.9167
685.7  1642.9167
685.6  1675
685.5  1731.25
685.4  1675.8333
685.3  1723.3333
685.2  1654.1667
685.1  1690.8333
685  1669.1667

# Region:            C1s
# Acquisition Date:  06/02/22 09:49:32 UTC
# Analysis Method:   XPS
# Analyzer:          Phoibos 100 R6
# Analyzer Lens:     LargeArea:1.5kV
# Analyzer Slit:     1:0.2x20\B:open
# Scan Mode:         FixedAnalyzerTransmission
# Curves/Scan:       1
# Values/Curve:      211
# Dwell Time:        0.8
# Excitation Energy: 1486.61
# Binding Energy:    297
# Pass Energy:       30
# Bias Voltage:      90
# Detector Voltage:  2600
# Eff. Workfunction: 4.309
# Source:            X-Ray Dummy
# Comment:           
#
# Cycle: 0
# Number of Scans: 5
#
# Cycle: 0, Curve: 0
# Acquisition Date: 06/02/22 09:49:32 UTC
#
# ColumnLabels: energy counts/s
#
297  583.5
296.9  570
296.8  561
296.7  597.5
296.6  578
296.5  574
296.4  586
296.3  559.75
296.2  574.5
296.1  580.75
296  554.5
295.9  570.25
295.8  565.5
295.7  552.75
295.6  537
295.5  568
295.4  590.75
295.3  561.25
295.2  579.5
295.1  577
295  555.5
294.9  543
294.8  576
294.7  564.5
294.6  565.25
294.5  555.5
294.4  534.75
294.3  552.5
294.2  579.25
294.1  554
294  557.75
293.9  558.5
293.8  558.25
293.7  527.75
293.6  574.5
293.5  541
293.4  550
293.3  555.75
293.2  556
293.1  578.5
293  570.5
292.9  548
292.8  578.25
292.7  560.25
292.6  546.25
292.5  570
292.4  534.75
292.3  566
292.2  537.75
292.1  549
292  551
291.9  568.25
291.8  555.25
291.7  541.25
291.6  562.5
291.5  558.75
291.4  555.75
291.3  585.75
291.2  574.75
291.1  555.5
291  553.25
290.9  561.75
290.8  569
290.7  559.5
290.6  554.25
290.5  562
290.4  558.75
290.3  559.75
290.2  563.25
290.1  560
290  556.5
289.9  575.5
289.8  584.75
289.7  577.5
289.6  577
289.5  556.25
289.4  578
289.3  579.75
289.2  593.5
289.1  585.5
289  569.5
288.9  553.25
288.8  570.25
288.7  562.25
288.6  572.5
288.5  570.5
288.4  573.25
288.3  555.5
288.2  577.75
288.1  571
288  552.5
287.9  590.25
287.8  576.5
287.7  565.75
287.6  577.25
287.5  585.5
287.4  565.5
287.3  577.75
287.2  577.5
287.1  576.75
287  551.25
286.9  567
286.8  567
286.7  573.5
286.6  588
286.5  567.25
286.4  575.25
286.3  564
286.2  560
286.1  580
286  564.25
285.9  603.5
285.8  587.25
285.7  583
285.6  575
285.5  570.5
285.4  576.5
285.3  588.5
285.2  568.5
285.1  577.25
285  564.25
284.9  555.5
284.8  572.75
284.7  562.5
284.6  537.75
284.5  574.5
284.4  569.5
284.3  561.75
284.2  579.25
284.1  575
284  556.5
283.9  564.25
283.8  583.25
283.7  571.5
283.6  570
283.5  558.5
283.4  553.75
283.3  569
283.2  561.5
283.1  581.5
283  583
282.9  553
282.8  574
282.7  582.25
282.6  577.25
282.5  556.75
282.4  573.25
282.3  565.25
282.2  589
282.1  586.25
282  572.25
281.9  565.5
281.8  575.75
281.7  591.75
281.6  578.5
281.5  567.5
281.4  555.25
281.3  588.5
281.2  570.25
281.1  575.5
281  575.75
280.9  580.25
280.8  564.75
280.7  571.5
280.6  560.5
280.5  561
280.4  567.25
280.3  581.5
280.2  549.5
280.1  581.5
280  544
279.9  552
279.8  573.25
279.7  580.75
279.6  580.5
279.5  549
279.4  557
279.3  576
279.2  560.25
279.1  571.75
279  578.5
278.9  553.25
278.8  587.75
278.7  583.25
278.6  584
278.5  536.75
278.4  544.25
278.3  564.75
278.2  567.5
278.1  563.75
278  585.75
277.9  566.5
277.8  548.5
277.7  561.75
277.6  560.75
277.5  560.5
277.4  566
277.3  576.5
277.2  595
277.1  562
277  569.5
276.9  570.25
276.8  591
276.7  557.5
276.6  568.25
276.5  553.5
276.4  556.5
276.3  554.25
276.2  579
276.1  550.25
276  555.25

# Region:            N1s
# Acquisition Date:  06/02/22 09:31:59 UTC
# Analysis Method:   XPS
# Analyzer:          Phoibos 100 R6
# Analyzer Lens:     LargeArea:1.5kV
# Analyzer Slit:     1:0.2x20\B:open
# Scan Mode:         FixedAnalyzerTransmission
# Curves/Scan:       1
# Values/Curve:      121
# Dwell Time:        0.8
# Excitation Energy: 1486.61
# Binding Energy:    409
# Pass Energy:       30
# Bias Voltage:      90
# Detector Voltage:  2600
# Eff. Workfunction: 4.309
# Source:            X-Ray Dummy
# Comment:           
#
# Cycle: 0
# Number of Scans: 2
#
# Cycle: 0, Curve: 0
# Acquisition Date: 06/02/22 09:31:59 UTC
#
# ColumnLabels: energy counts/s
#
409  627.5
408.9  636.25
408.8  640.625
408.7  627.5
408.6  611.25
408.5  609.375
408.4  630
408.3  622.5
408.2  651.25
408.1  603.75
408  650.625
407.9  646.875
407.8  618.125
407.7  609.375
407.6  623.125
407.5  603.75
407.4  625
407.3  617.5
407.2  623.75
407.1  635
407  608.75
406.9  603.75
406.8  660.625
406.7  590.625
406.6  616.875
406.5  630.625
406.4  626.25
406.3  620
406.2  593.75
406.1  605.625
406  644.375
405.9  650
405.8  587.5
405.7  606.875
405.6  634.375
405.5  649.375
405.4  638.75
405.3  638.125
405.2  627.5
405.1  621.875
405  615.625
404.9  610.625
404.8  628.125
404.7  640.625
404.6  627.5
404.5  601.25
404.4  633.125
404.3  613.125
404.2  633.125
404.1  648.75
404  628.75
403.9  651.875
403.8  600
403.7  606.25
403.6  633.125
403.5  598.75
403.4  653.75
403.3  612.5
403.2  645
403.1  618.125
403  634.375
402.9  605
402.8  636.875
402.7  653.125
402.6  661.875
402.5  605.625
402.4  624.375
402.3  650.625
402.2  640.625
402.1  640.625
402  628.125
401.9  646.875
401.8  642.5
401.7  618.75
401.6  649.375
401.5  650.625
401.4  603.125
401.3  619.375
401.2  620
401.1  616.875
401  631.25
400.9  621.875
400.8  660
400.7  640.625
400.6  625.625
400.5  626.875
400.4  605.625
400.3  654.375
400.2  603.125
400.1  635
400  629.375
399.9  644.375
399.8  643.75
399.7  651.25
399.6  630.625
399.5  610
399.4  609.375
399.3  621.25
399.2  598.75
399.1  620.625
399  631.875
398.9  617.5
398.8  616.875
398.7  670
398.6  650
398.5  598.125
398.4  613.125
398.3  625.625
398.2  626.875
398.1  620.625
398  618.125
397.9  611.25
397.8  640.625
397.7  670.625
397.6  645.625
397.5  622.5
397.4  609.375
397.3  593.125
397.2  688.75
397.1  631.875
397  626.875

# Region:            Ir4d5/2
# Acquisition Date:  06/02/22 09:34:50 UTC
# Analysis Method:   XPS
# Analyzer:          Phoibos 100 R6
# Analyzer Lens:     LargeArea:1.5kV
# Analyzer Slit:     1:0.2x20\B:open
# Scan Mode:         FixedAnalyzerTransmission
# Curves/Scan:       1
# Values/Curve:      211
# Dwell Time:        0.8
# Excitation Energy: 1486.61
# Binding Energy:    318
# Pass Energy:       30
# Bias Voltage:      90
# Detector Voltage:  2600
# Eff. Workfunction: 4.309
# Source:            X-Ray Dummy
# Comment:           
#
# Cycle: 0
# Number of Scans: 2
#
# Cycle: 0, Curve: 0
# Acquisition Date: 06/02/22 09:34:50 UTC
#
# ColumnLabels: energy counts/s
#
318  581.25
317.9  565
317.8  588.125
317.7  564.375
317.6  558.75
317.5  581.875
317.4  527.5
317.3  581.875
317.2  583.75
317.1  551.875
317  521.25
316.9  584.375
316.8  570
316.7  563.125
316.6  580
316.5  571.25
316.4  605.625
316.3  565.625
316.2  574.375
316.1  551.875
316  594.375
315.9  583.125
315.8  568.75
315.7  594.375
315.6  545
315.5  566.875
315.4  558.75
315.3  586.875
315.2  563.125
315.1  569.375
315  579.375
314.9  561.25
314.8  557.5
314.7  553.75
314.6  559.375
314.5  553.125
314.4  549.375
314.3  577.5
314.2  571.875
314.1  586.25
314  574.375
313.9  560.625
313.8  593.125
313.7  533.75
313.6  560
313.5  574.375
313.4  573.75
313.3  545.625
313.2  567.5
313.1  562.5
313  571.875
312.9  558.75
312.8  581.875
312.7  556.25
312.6  542.5
312.5  590
312.4  555.625
312.3  595
312.2  522.5
312.1  581.875
312  593.125
311.9  571.25
311.8  555.625
311.7  585.625
311.6  517.5
311.5  561.875
311.4  584.375
311.3  590.625
311.2  573.75
311.1  573.125
311  566.25
310.9  549.375
310.8  554.375
310.7  543.75
310.6  571.25
310.5  574.375
310.4  550.625
310.3  548.75
310.2  560.625
310.1  561.25
310  561.25
309.9  558.75
309.8  598.75
309.7  545.625
309.6  555.625
309.5  588.125
309.4  564.375
309.3  524.375
309.2  556.875
309.1  561.875
309  555
308.9  555
308.8  538.125
308.7  570
308.6  561.875
308.5  581.25
308.4  551.875
308.3  580
308.2  558.75
308.1  569.375
308  551.25
307.9  573.125
307.8  585
307.7  580
307.6  557.5
307.5  532.5
307.4  567.5
307.3  568.125
307.2  591.875
307.1  546.25
307  589.375
306.9  587.5
306.8  579.375
306.7  575
306.6  533.75
306.5  576.875
306.4  598.75
306.3  561.25
306.2  548.75
306.1  569.375
306  558.125
305.9  571.25
305.8  568.125
305.7  563.75
305.6  531.875
305.5  577.5
305.4  585.625
305.3  565.625
305.2  571.875
305.1  590.625
305  581.875
304.9  546.875
304.8  576.875
304.7  611.875
304.6  518.75
304.5  613.75
304.4  585.625
304.3  551.25
304.2  578.125
304.1  586.25
304  557.5
303.9  550.625
303.8  553.125
303.7  581.875
303.6  556.875
303.5  575
303.4  578.125
303.3  566.25
303.2  541.875
303.1  561.25
303  571.25
302.9  560.625
302.8  557.5
302.7  596.875
302.6  543.75
302.5  565
302.4  553.75
302.3  523.125
302.2  570
302.1  578.75
302  556.25
301.9  580
301.8  551.875
301.7  595.625
301.6  567.5
301.5  548.75
301.4  563.125
301.3  579.375
301.2  540
301.1  576.875
301  545.625
300.9  585.625
300.8  578.125
300.7  559.375
300.6  584.375
300.5  532.5
300.4  545.625
300.3  561.875
300.2  551.25
300.1  548.125
300  572.5
299.9  573.75
299.8  562.5
299.7  553.125
299.6  561.25
299.5  560.625
299.4  531.875
299.3  587.5
299.2  556.25
299.1  537.5
299  560.625
298.9  598.75
298.8  590
298.7  578.125
298.6  535
298.5  570.625
298.4  581.875
298.3  597.5
298.2  555
298.1  561.25
298  560.625
297.9  553.75
297.8  521.875
297.7  567.5
297.6  548.125
297.5  566.25
297.4  595
297.3  576.875
297.2  560
297.1  587.5
297  578.75

# Region:            overview
# Acquisition Date:  06/02/22 09:17:41 UTC
# Analysis Method:   XPS
# Analyzer:          Phoibos 100 R6
# Analyzer Lens:     MediumArea:1.5kV
# Analyzer Slit:     1:0.2x20\B:open
# Scan Mode:         FixedAnalyzerTransmission
# Curves/Scan:       1
# Values/Curve:      1205
# Dwell Time:        0.2
# Excitation Energy: 1486.61
# Binding Energy:    1200
# Pass Energy:       50
# Bias Voltage:      90
# Detector Voltage:  2600
# Eff. Workfunction: 4.309
# Source:            X-Ray Dummy
# Comment:           
#
# Cycle: 0
# Number of Scans: 1
#
# Cycle: 0, Curve: 0
# Acquisition Date: 06/02/22 09:17:41 UTC
#
# ColumnLabels: energy counts/s
#
1200  2945
1199  2860
1198  3105
1197  3105
1196  3000
1195  3265
1194  3080
1193  2690
1192  2720
1191  3025
1190  2695
1189  2765
1188  2680
1187  2935
1186  2840
1185  3010
1184  2730
1183  2450
1182  2875
1181  3060
1180  2880
1179  2640
1178  2745
1177  2860
1176  2690
1175  3005
1174  2655
1173  2805
1172  2950
1171  2640
1170  2690
1169  2705
1168  2775
1167  2675
1166  2735
1165  2700
1164  2480
1163  2665
1162  2560
1161  2650
1160  2425
1159  2890
1158  2600
1157  2655
1156  2725
1155  2540
1154  2500
1153  2660
1152  2775
1151  2845
1150  2565
1149  2575
1148  2515
1147  2645
1146  2580
1145  2410
1144  2535
1143  2525
1142  2500
1141  2505
1140  2505
1139  2485
1138  2570
1137  2555
1136  2410
1135  2525
1134  2460
1133  2615
1132  2440
1131  2325
1130  2550
1129  2445
