# Created by:        SpecsLab Prodigy, Version 4.60.2-r85849 
#
# XY-Serializer Export Settings:
#   Comment Prefix:           #
#   Output meta data:         yes
#   Energy Axis:              Binding Energy
#   Count Rate:               Counts per Second
#   Separate Scan Data:       no
#   Separate Channel Data:    no
#   External Channel Data:    yes
#   Transmission Function:    no
#   ErrorBar:                 no
#   Operation Results:        yes
#   Time Zone Format:         UTC
#
# Group:             Spectrum Group
#
# Region:            C1s
# Acquisition Date:  12/16/21 17:28:33 UTC
# Analysis Method:   XPS
# Analyzer:          Phoibos 100 R6
# Analyzer Lens:     LargeArea:1.5kV
# Analyzer Slit:     1:0.2x20\B:open
# Scan Mode:         FixedAnalyzerTransmission
# Curves/Scan:       1
# Values/Curve:      131
# Dwell Time:        0.8
# Excitation Energy: 1486.61
# Binding Energy:    295
# Pass Energy:       30
# Bias Voltage:      90
# Detector Voltage:  2600
# Eff. Workfunction: 4.309
# Source:            X-Ray Dummy
# Comment:           
#
# Cycle: 0
# Number of Scans: 10
#
# Cycle: 0, Curve: 0
# Acquisition Date: 12/16/21 17:28:33 UTC
#
# ColumnLabels: energy counts/s
#
295  944.25
294.9  966.875
294.8  941.25
294.7  951.75
294.6  946.875
294.5  976.5
294.4  957.5
294.3  941.625
294.2  940.875
294.1  948.625
294  939.5
293.9  953.375
293.8  963.5
293.7  951.125
293.6  953.125
293.5  942
293.4  948.25
293.3  959.625
293.2  975.5
293.1  951.125
293  985.75
292.9  948.25
292.8  962.625
292.7  965.5
292.6  973.75
292.5  973.25
292.4  987.375
292.3  968.25
292.2  990.625
292.1  968.5
292  983.125
291.9  964.5
291.8  973.875
291.7  955.125
291.6  978.75
291.5  977.375
291.4  966
291.3  977
291.2  967.125
291.1  967.5
291  967.125
290.9  978.125
290.8  986.875
290.7  996.75
290.6  1025.25
290.5  1030.375
290.4  1004
290.3  1012.5
290.2  1035.25
290.1  1032.875
290  1049.625
289.9  1086.625
289.8  1103.625
289.7  1091.875
289.6  1137.375
289.5  1183.5
289.4  1175.625
289.3  1208.75
289.2  1247.125
289.1  1267
289  1367.875
288.9  1413.25
288.8  1488.625
288.7  1548.375
288.6  1628.25
288.5  1717.125
288.4  1801.75
288.3  1884.5
288.2  1988.125
288.1  2091.5
288  2153
287.9  2279.25
287.8  2356
287.7  2396
287.6  2489.875
287.5  2511.625
287.4  2570.625
287.3  2626.125
287.2  2632.5
287.1  2672.125
287  2706.125
286.9  2712.375
286.8  2688.75
286.7  2685.625
286.6  2699.875
286.5  2713.125
286.4  2648.875
286.3  2653.25
286.2  2611.625
286.1  2559.125
286  2494.375
285.9  2395
285.8  2307.875
285.7  2244.375
285.6  2111.875
285.5  1981.5
285.4  1915.25
285.3  1776.5
285.2  1662
285.1  1515.375
285  1415.75
284.9  1338.5
284.8  1249.875
284.7  1184.25
284.6  1093.875
284.5  1064.125
284.4  1005.25
284.3  986.125
284.2  962.125
284.1  939.375
284  909.25
283.9  869.625
283.8  876.25
283.7  839.875
283.6  866
283.5  838
283.4  844.25
283.3  813.875
283.2  842.5
283.1  850.5
283  831.125
282.9  825.625
282.8  822.5
282.7  812.375
282.6  824
282.5  820.625
282.4  822.625
282.3  820
282.2  798.25
282.1  798.5
282  804

# Region:            N1s
# Acquisition Date:  12/16/21 18:27:47 UTC
# Analysis Method:   XPS
# Analyzer:          Phoibos 100 R6
# Analyzer Lens:     LargeArea:1.5kV
# Analyzer Slit:     1:0.2x20\B:open
# Scan Mode:         FixedAnalyzerTransmission
# Curves/Scan:       1
# Values/Curve:      131
# Dwell Time:        0.8
# Excitation Energy: 1486.61
# Binding Energy:    408
# Pass Energy:       30
# Bias Voltage:      90
# Detector Voltage:  2600
# Eff. Workfunction: 4.309
# Source:            X-Ray Dummy
# Comment:           
#
# Cycle: 0
# Number of Scans: 40
#
# Cycle: 0, Curve: 0
# Acquisition Date: 12/16/21 18:27:47 UTC
#
# ColumnLabels: energy counts/s
#
408  1086.8125
407.9  1078.0938
407.8  1087.1563
407.7  1074.9688
407.6  1089.0625
407.5  1083.625
407.4  1094.375
407.3  1099.9375
407.2  1096.5
407.1  1108.3125
407  1083.9063
406.9  1097.2813
406.8  1086.8125
406.7  1094.3438
406.6  1089.5625
406.5  1094.8125
406.4  1103.0938
406.3  1090.2188
406.2  1097.2188
406.1  1113.4375
406  1090.5313
405.9  1100.4375
405.8  1095.625
405.7  1101.4375
405.6  1094.875
405.5  1091.6875
405.4  1106.2813
405.3  1097.4688
405.2  1102.75
405.1  1105.6875
405  1101.25
404.9  1105.8438
404.8  1110.3125
404.7  1106.8125
404.6  1108.5625
404.5  1104.6563
404.4  1105.1563
404.3  1101.25
404.2  1106.875
404.1  1102.625
404  1119.6875
403.9  1121.5
403.8  1116.2813
403.7  1127.2188
403.6  1127.4063
403.5  1138.9375
403.4  1139.3125
403.3  1139.5938
403.2  1142.75
403.1  1161.5938
403  1176.1563
402.9  1177.0625
402.8  1200.0313
402.7  1214.0938
402.6  1218.9688
402.5  1235
402.4  1238.1875
402.3  1280.8125
402.2  1277.4375
402.1  1294.9688
402  1301.125
401.9  1311.4063
401.8  1314.625
401.7  1333.5625
401.6  1334.875
401.5  1342.7188
401.4  1339.9688
401.3  1354.75
401.2  1352.9375
401.1  1353.5625
401  1362.8438
400.9  1368.125
400.8  1349.9375
400.7  1353.6875
400.6  1361.3438
400.5  1351.375
400.4  1355.625
400.3  1338.25
400.2  1332.8438
400.1  1320.2188
400  1311.8438
399.9  1303.5
399.8  1278.125
399.7  1266.0938
399.6  1252.1563
399.5  1232.2188
399.4  1200.3438
399.3  1188.9063
399.2  1157
399.1  1153.6563
399  1137.1563
398.9  1117.4375
398.8  1115.9688
398.7  1097.5938
398.6  1092.75
398.5  1090.5313
398.4  1085.5313
398.3  1080.25
398.2  1081.1875
398.1  1057.0938
398  1059.375
397.9  1063.625
397.8  1073.0313
397.7  1069.4688
397.6  1062
397.5  1050.8125
397.4  1049.9063
397.3  1056.7813
397.2  1056.5625
397.1  1051.8125
397  1050.2188
396.9  1053.6563
396.8  1050.8125
396.7  1042.25
396.6  1039.2188
396.5  1046.375
396.4  1052.125
396.3  1053.5
396.2  1052.8125
396.1  1050.6875
396  1047.3125
395.9  1049.1875
395.8  1075.9688
395.7  1051.7813
395.6  1061.3438
395.5  1041.375
395.4  1047.0625
395.3  1048.5313
395.2  1046.2188
395.1  1037.0313
395  1045.25

# Region:            Si2p
# Acquisition Date:  12/16/21 17:32:14 UTC
# Analysis Method:   XPS
# Analyzer:          Phoibos 100 R6
# Analyzer Lens:     LargeArea:1.5kV
# Analyzer Slit:     1:0.2x20\B:open
# Scan Mode:         FixedAnalyzerTransmission
# Curves/Scan:       1
# Values/Curve:      141
# Dwell Time:        0.8
# Excitation Energy: 1486.61
# Binding Energy:    112
# Pass Energy:       30
# Bias Voltage:      90
# Detector Voltage:  2600
# Eff. Workfunction: 4.309
# Source:            X-Ray Dummy
# Comment:           
#
# Cycle: 0
# Number of Scans: 10
#
# Cycle: 0, Curve: 0
# Acquisition Date: 12/16/21 17:32:14 UTC
#
# ColumnLabels: energy counts/s
#
112  433.375
111.9  415.75
111.8  438.875
111.7  420.625
111.6  421.75
111.5  432.25
111.4  434.75
111.3  421
111.2  423.25
111.1  412.625
111  423.5
110.9  429.875
110.8  415.25
110.7  401.375
110.6  418.25
110.5  419
110.4  427.25
110.3  427.25
110.2  438
110.1  421.5
110  414.375
109.9  433.125
109.8  435.75
109.7  426.625
109.6  442.125
109.5  434.875
109.4  430.875
109.3  428.5
109.2  420.375
109.1  424
109  421.5
108.9  432.125
108.8  439.375
108.7  425
108.6  440
108.5  449.5
108.4  437.875
108.3  444.375
108.2  447.125
108.1  451
108  465.375
107.9  459.75
107.8  448.375
107.7  473.75
107.6  468.25
107.5  496.375
107.4  499.625
107.3  501.125
107.2  517.5
107.1  525.625
107  552.5
106.9  553.125
106.8  572.25
106.7  591.125
106.6  613.375
106.5  651.625
106.4  665.5
106.3  700.5
106.2  734.5
106.1  751.625
106  770.625
105.9  793.375
105.8  826.875
105.7  882.5
105.6  853.875
105.5  850.25
105.4  867.5
105.3  859.875
105.2  880.625
105.1  891.25
105  873
104.9  841.625
104.8  872.25
104.7  840.25
104.6  821
104.5  796.625
104.4  771
104.3  760.5
104.2  738.25
104.1  695.625
104  665.125
103.9  630.25
103.8  599.625
103.7  578.125
103.6  552.375
103.5  561
103.4  531
103.3  520.25
103.2  497.125
103.1  498.25
103  477.375
102.9  475.375
102.8  481.625
102.7  444.5
102.6  451.625
102.5  444
102.4  440.875
102.3  450
102.2  424.125
102.1  415.625
102  427.25
101.9  424.25
101.8  427.25
101.7  426.625
101.6  430.25
101.5  425.125
101.4  423.375
101.3  417.25
101.2  405.5
101.1  425.25
101  413.375
100.9  412.375
100.8  400
100.7  417.5
100.6  415
100.5  396.75
100.4  403.875
100.3  404
100.2  419.125
100.1  421.75
100  405.625
99.9  403
99.8  405.5
99.7  399.875
99.6  414.75
99.5  405.625
99.4  407.75
99.3  400.75
99.2  410.625
99.1  402.875
99  412.375
98.9  424.625
98.8  397.875
98.7  413
98.6  397.625
98.5  407.5
98.4  408.875
98.3  410.375
98.2  390.75
98.1  406
98  395

# Region:            O1s
# Acquisition Date:  12/16/21 17:34:34 UTC
# Analysis Method:   XPS
# Analyzer:          Phoibos 100 R6
# Analyzer Lens:     LargeArea:1.5kV
# Analyzer Slit:     1:0.2x20\B:open
# Scan Mode:         FixedAnalyzerTransmission
# Curves/Scan:       1
# Values/Curve:      171
# Dwell Time:        0.8
# Excitation Energy: 1486.61
# Binding Energy:    545
# Pass Energy:       30
# Bias Voltage:      90
# Detector Voltage:  2600
# Eff. Workfunction: 4.309
# Source:            X-Ray Dummy
# Comment:           
#
# Cycle: 0
# Number of Scans: 10
#
# Cycle: 0, Curve: 0
# Acquisition Date: 12/16/21 17:34:34 UTC
#
# ColumnLabels: energy counts/s
#
545  1466.125
544.9  1445.5
544.8  1439.375
544.7  1462
544.6  1416.125
544.5  1428.875
544.4  1423.75
544.3  1424.875
544.2  1411.875
544.1  1435.5
544  1421.625
543.9  1417.125
543.8  1366.625
543.7  1393.375
543.6  1380.375
543.5  1414.5
543.4  1382.25
543.3  1390.75
543.2  1367.625
543.1  1383.875
543  1352.625
542.9  1357.875
542.8  1398.375
542.7  1352.75
542.6  1351.125
542.5  1370.875
542.4  1350
542.3  1357.25
542.2  1373.375
542.1  1356
542  1361.875
541.9  1352.375
541.8  1347
541.7  1365.625
541.6  1347.625
541.5  1350.375
541.4  1348.125
541.3  1333
541.2  1365.875
541.1  1354.625
541  1352.5
540.9  1345.75
540.8  1347.5
540.7  1346.75
540.6  1367.5
540.5  1337.375
540.4  1348.25
540.3  1331
540.2  1333.5
540.1  1361.25
540  1355.75
539.9  1342.375
539.8  1362.375
539.7  1379.25
539.6  1374.125
539.5  1322.5
539.4  1364.625
539.3  1356.625
539.2  1379.5
539.1  1350.375
539  1349.75
538.9  1398.25
538.8  1371.625
538.7  1380.5
538.6  1383
538.5  1400.875
538.4  1387
538.3  1408.5
538.2  1420.375
538.1  1434
538  1434.375
537.9  1432.75
537.8  1434.75
537.7  1471.125
537.6  1466.5
537.5  1464.125
537.4  1532.25
537.3  1552.375
537.2  1540.25
537.1  1611.375
537  1645
536.9  1683.625
536.8  1724.25
536.7  1779.125
536.6  1846.75
536.5  1930.125
536.4  2002
536.3  2108.125
536.2  2220.625
536.1  2358.5
536  2462
535.9  2638.5
535.8  2788.125
535.7  2959.875
535.6  3163.75
535.5  3346.25
535.4  3517.625
535.3  3766.5
535.2  3950.75
535.1  4143.5
535  4352.875
534.9  4534.875
534.8  4770.875
534.7  4860.5
534.6  5019.75
534.5  5056.375
534.4  5150
534.3  5125.125
534.2  5141.75
534.1  5102.875
534  4996.5
533.9  4832.25
533.8  4659.875
533.7  4445.375
533.6  4229
533.5  4028.625
533.4  3761.75
533.3  3534.375
533.2  3240.375
533.1  2968
533  2782.25
532.9  2612.375
532.8  2430.625
532.7  2298.375
532.6  2137.625
532.5  1979.875
532.4  1877.875
532.3  1815.375
532.2  1725.125
532.1  1639.625
532  1627.125
531.9  1581.5
531.8  1559
531.7  1542.125
531.6  1481.625
531.5  1457.875
531.4  1431.125
531.3  1451.625
531.2  1401
531.1  1393.375
531  1395.125
530.9  1344.5
530.8  1342
530.7  1362.25
530.6  1293.75
530.5  1296.625
530.4  1293
530.3  1288.125
530.2  1286.25
530.1  1276.625
530  1264.875
529.9  1261.375
529.8  1276.625
529.7  1264.5
529.6  1239.25
529.5  1275.625
529.4  1243.25
529.3  1221.375
529.2  1249.375
529.1  1241.125
529  1257.5
528.9  1239.375
528.8  1234.5
528.7  1234.125
528.6  1261.375
528.5  1231.875
528.4  1223.875
528.3  1232.375
528.2  1236.75
528.1  1222.125
528  1223.25

# Region:            Cl2p
# Acquisition Date:  12/16/21 16:37:59 UTC
# Analysis Method:   XPS
# Analyzer:          Phoibos 100 R6
# Analyzer Lens:     LargeArea:1.5kV
# Analyzer Slit:     1:0.2x20\B:open
# Scan Mode:         FixedAnalyzerTransmission
# Curves/Scan:       1
# Values/Curve:      121
# Dwell Time:        0.8
# Excitation Energy: 1486.61
# Binding Energy:    206
# Pass Energy:       30
# Bias Voltage:      90
# Detector Voltage:  2600
# Eff. Workfunction: 4.309
# Source:            X-Ray Dummy
# Comment:           
#
# Cycle: 0
# Number of Scans: 3
#
# Cycle: 0, Curve: 0
# Acquisition Date: 12/16/21 16:37:59 UTC
#
# ColumnLabels: energy counts/s
#
206  594.16667
205.9  566.25
205.8  582.08333
205.7  603.33333
205.6  589.58333
205.5  593.75
205.4  582.5
205.3  572.08333
205.2  599.58333
205.1  561.25
205  584.58333
204.9  586.66667
204.8  590.83333
204.7  604.58333
204.6  587.08333
204.5  610
204.4  596.25
204.3  602.5
204.2  549.58333
204.1  573.75
204  592.08333
203.9  582.5
203.8  602.91667
203.7  585.41667
203.6  597.08333
203.5  607.91667
203.4  623.75
203.3  599.16667
203.2  578.75
203.1  583.75
203  598.75
202.9  606.66667
202.8  592.91667
202.7  593.75
202.6  588.75
202.5  574.16667
202.4  594.16667
202.3  577.5
202.2  576.25
202.1  604.16667
202  594.16667
201.9  614.16667
201.8  565.83333
201.7  590
201.6  608.75
201.5  665
201.4  607.08333
201.3  583.33333
201.2  587.91667
201.1  590.83333
201  572.91667
200.9  576.25
200.8  592.91667
200.7  620
200.6  585.41667
200.5  582.91667
200.4  586.66667
200.3  574.58333
200.2  585.41667
200.1  582.08333
200  605
199.9  600
199.8  571.25
199.7  592.5
199.6  596.66667
199.5  566.25
199.4  585.41667
199.3  595
199.2  588.75
199.1  576.66667
199  588.33333
198.9  596.66667
198.8  604.58333
198.7  599.58333
198.6  568.33333
198.5  544.16667
198.4  566.25
198.3  604.58333
198.2  578.33333
198.1  568.33333
198  568.75
197.9  563.33333
197.8  581.66667
197.7  558.33333
197.6  568.33333
197.5  552.08333
197.4  584.16667
197.3  596.66667
197.2  603.75
197.1  588.33333
197  600
196.9  580.83333
196.8  535.41667
196.7  564.16667
196.6  590
196.5  598.75
196.4  580
196.3  584.16667
196.2  569.16667
196.1  584.16667
196  590.41667
195.9  582.08333
195.8  567.5
195.7  570.83333
195.6  573.75
195.5  572.91667
195.4  558.33333
195.3  603.75
195.2  586.25
195.1  569.16667
195  579.16667
194.9  600
194.8  562.91667
194.7  572.08333
194.6  585.83333
194.5  566.66667
194.4  583.75
194.3  580.41667
194.2  575.83333
194.1  590
194  614.58333

# Region:            Ba3d
# Acquisition Date:  12/16/21 16:40:02 UTC
# Analysis Method:   XPS
# Analyzer:          Phoibos 100 R6
# Analyzer Lens:     LargeArea:1.5kV
# Analyzer Slit:     1:0.2x20\B:open
# Scan Mode:         FixedAnalyzerTransmission
# Curves/Scan:       1
# Values/Curve:      151
# Dwell Time:        0.8
# Excitation Energy: 1486.61
# Binding Energy:    790
# Pass Energy:       30
# Bias Voltage:      90
# Detector Voltage:  2600
# Eff. Workfunction: 4.309
# Source:            X-Ray Dummy
# Comment:           
#
# Cycle: 0
# Number of Scans: 3
#
# Cycle: 0, Curve: 0
# Acquisition Date: 12/16/21 16:40:02 UTC
#
# ColumnLabels: energy counts/s
#
790  2156.6667
789.9  2153.75
789.8  2134.1667
789.7  2205.8333
789.6  2086.25
789.5  2117.5
789.4  2139.5833
789.3  2100.4167
789.2  2104.5833
789.1  2155.4167
789  2146.6667
788.9  2141.25
788.8  2092.0833
788.7  2107.5
788.6  2090
788.5  2102.0833
788.4  2179.5833
788.3  2092.5
788.2  2095
788.1  2121.25
788  2173.75
787.9  2117.9167
787.8  2143.3333
787.7  2132.9167
787.6  2100.8333
787.5  2185.8333
787.4  2146.25
787.3  2170
787.2  2194.5833
787.1  2126.6667
787  2127.5
786.9  2114.1667
786.8  2177.5
786.7  2101.25
786.6  2110.4167
786.5  2147.5
786.4  2127.9167
786.3  2101.25
786.2  2094.5833
786.1  2134.5833
786  2131.25
785.9  2138.75
785.8  2129.5833
785.7  2154.1667
785.6  2140
785.5  2088.3333
785.4  2117.9167
785.3  2129.5833
785.2  2092.0833
785.1  2142.5
785  2148.3333
784.9  2062.5
784.8  2110.8333
784.7  2150
784.6  2151.6667
784.5  2126.25
784.4  2084.1667
784.3  2181.6667
784.2  2142.0833
784.1  2125.8333
784  2100
783.9  2057.9167
783.8  2093.75
783.7  2139.1667
783.6  2175.8333
783.5  2117.9167
783.4  2080.4167
783.3  2073.75
783.2  2114.1667
783.1  2127.0833
783  2120.4167
782.9  2090.8333
782.8  2087.0833
782.7  2159.1667
782.6  2112.9167
782.5  2147.0833
782.4  2110.4167
782.3  2113.75
782.2  2174.5833
782.1  2109.1667
782  2177.0833
781.9  2127.9167
781.8  2139.5833
781.7  2128.75
781.6  2150
781.5  2159.5833
781.4  2166.25
781.3  2116.6667
781.2  2146.6667
781.1  2158.3333
781  2202.9167
780.9  2136.25
780.8  2143.3333
780.7  2129.1667
780.6  2043.75
780.5  2100.8333
780.4  2102.9167
780.3  2134.1667
780.2  2142.5
780.1  2141.6667
780  2095.4167
779.9  2141.6667
779.8  2146.6667
779.7  2130.4167
779.6  2109.1667
779.5  2092.5
779.4  2080.8333
779.3  2162.0833
779.2  2081.6667
779.1  2095.8333
779  2144.5833
778.9  2150.4167
778.8  2141.6667
778.7  2072.9167
778.6  2110.4167
778.5  2152.9167
778.4  2112.0833
778.3  2099.1667
778.2  2090.8333
778.1  2067.0833
778  2107.9167
777.9  2084.1667
777.8  2095
777.7  2088.3333
777.6  2086.25
777.5  2159.1667
777.4  2124.1667
777.3  2083.75
777.2  2107.0833
777.1  2095
777  2092.9167
776.9  2096.25
776.8  2128.3333
776.7  2047.9167
776.6  2169.1667
776.5  2109.1667
776.4  2134.1667
776.3  2034.1667
776.2  2094.5833
776.1  2047.9167
776  2069.5833
775.9  2151.6667
775.8  2097.5
775.7  2069.1667
775.6  2124.1667
775.5  2141.6667
775.4  2146.6667
775.3  2150.4167
775.2  2096.6667
775.1  2112.0833
775  2075.4167

# Region:            overview
# Acquisition Date:  12/16/21 16:17:04 UTC
# Analysis Method:   XPS
# Analyzer:          Phoibos 100 R6
# Analyzer Lens:     LargeArea:1.5kV
# Analyzer Slit:     1:0.2x20\B:open
# Scan Mode:         FixedAnalyzerTransmission
# Curves/Scan:       1
# Values/Curve:      1205
# Dwell Time:        0.2
# Excitation Energy: 1486.61
# Binding Energy:    1200
# Pass Energy:       50
# Bias Voltage:      90
# Detector Voltage:  2600
# Eff. Workfunction: 4.309
# Source:            X-Ray Dummy
# Comment:           
#
# Cycle: 0
# Number of Scans: 1
#
# Cycle: 0, Curve: 0
# Acquisition Date: 12/16/21 16:17:04 UTC
#
# ColumnLabels: energy counts/s
#
1200  7340
1199  7380
1198  7340
1197  7190
1196  7250
1195  7175
1194  7440
1193  7440
1192  7080
1191  7425
1190  7430
1189  7445
1188  7340
1187  7620
1186  7340
1185  6840
1184  7285
1183  7115
1182  7525
1181  7195
1180  7130
1179  6825
1178  7435
1177  7090
1176  7370
1175  7175
1174  7270
1173  7015
1172  7350
1171  7510
1170  7430
1169  7370
1168  7480
1167  7495
1166  7370
1165  7365
1164  7235
1163  6945
1162  7285
1161  6925
1160  7365
1159  7160
1158  7275
1157  7440
1156  7340
1155  7230
1154  7415
1153  7130
1152  7180
1151  7230
1150  7110
1149  7550
1148  6975
1147  7100
1146  7160
1145  7425
1144  7270
1143  7425
1142  7280
1141  6965
1140  7415
1139  7700
1138  7300
1137  7240
1136  7170
1135  7395
1134  7070
1133  7660
1132  7100
1131  7450
1130  7350
1129  7315
1128  7345
1127  7475
1126  6935
1125  7305
1124  7165
1123  7330
1122  7360
1121  7450
1120  6900
1119  7185
1118  7015
1117  7150
1116  7515
1115  7625
1114  7010
1113  7170
1112  7655
1111  7395
1110  6995
1109  7270
1108  7430
1107  7280
1106  7090
1105  7395
1104  7080
1103  7180
1102  7430
1101  7160
1100  7315
1099  7140
1098  7080
1097  7210
1096  6965
1095  7040
1094  7465
1093  7130
1092  6950
1091  6785
1090  7195
1089  7005
1088  6950
1087  6870
1086  7050
1085  7275
1084  7345
1083  6890
1082  6785
1081  6895
1080  6990
1079  6950
1078  7550
1077  6950
1076  7270
1075  7010
1074  7195
1073  7095
1072  7155
1071  7290
1070  7270
1069  7235
1068  6860
1067  7120
1066  7665
1065  7230
1064  7455
1063  7280
1062  7060
1061  7300
1060  6925
1059  7255
1058  7150
1057  6940
1056  7130
1055  7145
1054  7060
1053  7130
1052  7135
1051  7315
1050  6820
1049  7095
1048  7210
1047  7070
1046  7465
1045  6790
1044  7235
1043  7555
1042  7160
1041  7375
1040  7625
1039  7295
1038  7310
1037  7055
1036  7120
1035  6815
1034  7400
1033  7480
1032  7415
1031  6880
1030  7220
1029  7055
1028  7095
1027  7205
1026  7270
1025  7295
1024  7120
1023  7035
1022  7435
1021  7300
1020  6880
1019  7035
1018  7230
1017  7335
1016  6975
