# Created by:        SpecsLab Prodigy, Version 4.60.2-r85849
#
# XY-Serializer Export Settings:
#   Comment Prefix:           #
#   Output meta data:         yes
#   Energy Axis:              Binding Energy
#   Count Rate:               Counts per Second
#   Separate Scan Data:       no
#   Separate Channel Data:    no
#   External Channel Data:    yes
#   Transmission Function:    no
#   ErrorBar:                 no
#   Operation Results:        yes
#   Time Zone Format:         UTC
#
# Group:             Spectrum Group
#
# Region:            Ba3d
# Acquisition Date:  04/07/22 23:16:25 UTC
# Analysis Method:   XPS
# Analyzer:          Phoibos 100 R6
# Analyzer Lens:     LargeArea:1.5kV
# Analyzer Slit:     1:0.2x20\B:open
# Scan Mode:         FixedAnalyzerTransmission
# Curves/Scan:       1
# Values/Curve:      121
# Dwell Time:        0.8
# Excitation Energy: 1486.61
# Binding Energy:    789
# Pass Energy:       30
# Bias Voltage:      90
# Detector Voltage:  2600
# Eff. Workfunction: 4.309
# Source:            X-Ray Dummy
# Comment:
#
# Cycle: 0
# Number of Scans: 20
#
# Cycle: 0, Curve: 0
# Acquisition Date: 04/07/22 23:16:25 UTC
#
# ColumnLabels: energy counts/s
#
789  3256
788.9  3260.75
788.8  3266.9375
788.7  3253.0625
788.6  3225.75
788.5  3243.8125
788.4  3246.875
788.3  3256.6875
788.2  3243.125
788.1  3264.8125
788  3311.8125
787.9  3337.9375
787.8  3389.375
787.7  3365.4375
787.6  3424.9375
787.5  3462.625
787.4  3496.6875
787.3  3501.875
787.2  3559.5
787.1  3616.75
787  3668.9375
786.9  3736.375
786.8  3810.125
786.7  3976.875
786.6  4084.75
786.5  4253.4375
786.4  4413.1875
786.3  4691.625
786.2  4937.4375
786.1  5237.5625
786  5631.75
785.9  5980.625
785.8  6470.25
785.7  7025.5625
785.6  7599.6875
785.5  8291.6875
785.4  8962.625
785.3  9733.4375
785.2  10484.625
785.1  11362
785  12119.188
784.9  12906.25
784.8  13707.875
784.7  14426.438
784.6  15018.75
784.5  15478.438
784.4  15820.063
784.3  16063.75
784.2  16018.063
784.1  15924.563
784  15616.313
783.9  15155.5
783.8  14531.875
783.7  13851.063
783.6  13018.25
783.5  12184.375
783.4  11303.563
783.3  10324.563
783.2  9492.875
783.1  8725.1875
783  7931.625
782.9  7291
782.8  6664.875
782.7  6145
782.6  5660.0625
782.5  5261.5
782.4  4881.625
782.3  4634.875
782.2  4374.75
782.1  4152.125
782  3975.125
781.9  3789
781.8  3657.5625
781.7  3510.5625
781.6  3382.375
781.5  3282.0625
781.4  3189.6875
781.3  3088.3125
781.2  3016.75
781.1  2973.9375
781  2880.3125
780.9  2828.5625
780.8  2748.875
780.7  2722.1875
780.6  2682.3125
780.5  2645.25
780.4  2627.8125
780.3  2558.4375
780.2  2541.875
780.1  2511.4375
780  2499.4375
779.9  2488.9375
779.8  2462.5
779.7  2453.9375
779.6  2430
779.5  2411.3125
779.4  2423.9375
779.3  2402.125
779.2  2384.25
779.1  2382.6875
779  2394.5
778.9  2339.375
778.8  2370.375
778.7  2349.375
778.6  2346.5625
778.5  2302.5
778.4  2310.1875
778.3  2308.1875
778.2  2293.125
778.1  2299.3125
778  2281.125
777.9  2285.125
777.8  2258.5
777.7  2258.6875
777.6  2254.0625
777.5  2257.1875
777.4  2225.1875
777.3  2227.0625
777.2  2237.875
777.1  2240.25
777  2235.125

# Region:            C1s
# Acquisition Date:  04/08/22 08:03:53 UTC
# Analysis Method:   XPS
# Analyzer:          Phoibos 100 R6
# Analyzer Lens:     LargeArea:1.5kV
# Analyzer Slit:     1:0.2x20\B:open
# Scan Mode:         FixedAnalyzerTransmission
# Curves/Scan:       1
# Values/Curve:      151
# Dwell Time:        0.8
# Excitation Energy: 1486.61
# Binding Energy:    295
# Pass Energy:       30
# Bias Voltage:      90
# Detector Voltage:  2600
# Eff. Workfunction: 4.309
# Source:            X-Ray Dummy
# Comment:
#
# Cycle: 0
# Number of Scans: 97
#
# Cycle: 0, Curve: 0
# Acquisition Date: 04/08/22 08:03:53 UTC
#
# ColumnLabels: energy counts/s
#
295  782.08763
294.9  781.67526
294.8  783.2732
294.7  781.80412
294.6  774.4201
294.5  780.41237
294.4  782.16495
294.3  788.75
294.2  782.26804
294.1  780.4768
294  780.8634
293.9  781.9201
293.8  784.26546
293.7  784.6134
293.6  780.7732
293.5  784.27835
293.4  787.25515
293.3  795.09021
293.2  794.34278
293.1  792.25515
293  794.79381
292.9  797.77062
292.8  799.04639
292.7  806.81701
292.6  809.53608
292.5  809.89691
292.4  828.04124
292.3  816.94588
292.2  822.70619
292.1  827.15206
292  834.47165
291.9  828.53093
291.8  838.78866
291.7  840.34794
291.6  844.35567
291.5  853.77577
291.4  855.52835
291.3  868.85309
291.2  871.88144
291.1  882.5
291  884.5232
290.9  893.35052
290.8  898.86598
290.7  915.74742
290.6  929.02062
290.5  938.77577
290.4  944.21392
290.3  970.4768
290.2  974.25258
290.1  987.17784
290  1001.7526
289.9  1019.5876
289.8  1028.6598
289.7  1044.8711
289.6  1063.4278
289.5  1080.3222
289.4  1106.7139
289.3  1122.8479
289.2  1146.7139
289.1  1167.2423
289  1186.5979
288.9  1210.9278
288.8  1229.6263
288.7  1251.3273
288.6  1279.3041
288.5  1290.1418
288.4  1308.2603
288.3  1315.2964
288.2  1309.4845
288.1  1304.9871
288  1287.0103
287.9  1274.3814
287.8  1259.7165
287.7  1228.1443
287.6  1193.0541
287.5  1159.7809
287.4  1123.0928
287.3  1079.7423
287.2  1047.3454
287.1  1009.1881
287  982.08763
286.9  955.60567
286.8  929.76804
286.7  900.06443
286.6  893.10567
286.5  866.79124
286.4  847.62887
286.3  834.00773
286.2  820.90206
286.1  815.02577
286  808.31186
285.9  802.35825
285.8  788.31186
285.7  784.54897
285.6  773.78866
285.5  776.71392
285.4  770.27062
285.3  761.00515
285.2  764.63918
285.1  758.68557
285  748.40206
284.9  751.62371
284.8  744.71649
284.7  743.65979
284.6  751.00515
284.5  741.27577
284.4  744.07216
284.3  745.16753
284.2  740.95361
284.1  746.27577
284  740.99227
283.9  740.23196
283.8  739.75515
283.7  740.63144
283.6  754.18814
283.5  741.43041
283.4  739.66495
283.3  740.69588
283.2  733.15722
283.1  739.57474
283  740.55412
282.9  736.32732
282.8  739.16237
282.7  736.94588
282.6  740.16753
282.5  739.34278
282.4  740.88918
282.3  735.88918
282.2  738.49227
282.1  735.48969
282  738.24742
281.9  737.28093
281.8  750.27062
281.7  740.69588
281.6  742.3067
281.5  738.44072
281.4  734.39433
281.3  732.15206
281.2  737.22938
281.1  742.04897
281  735.78608
280.9  733.82732
280.8  732.65464
280.7  735.8634
280.6  735.55412
280.5  727.65464
280.4  738.82732
280.3  737.5
280.2  748.72423
280.1  735.10309
280  733.10567

# Region:            N1s (2)
# Acquisition Date:  04/07/22 16:33:23 UTC
# Analysis Method:   XPS
# Analyzer:          Phoibos 100 R6
# Analyzer Lens:     LargeArea:1.5kV
# Analyzer Slit:     1:0.2x20\B:open
# Scan Mode:         FixedAnalyzerTransmission
# Curves/Scan:       1
# Values/Curve:      101
# Dwell Time:        0.8
# Excitation Energy: 1486.61
# Binding Energy:    407
# Pass Energy:       30
# Bias Voltage:      90
# Detector Voltage:  2600
# Eff. Workfunction: 4.309
# Source:            X-Ray Dummy
# Comment:
#
# Cycle: 0
# Number of Scans: 1
#
# Cycle: 0, Curve: 0
# Acquisition Date: 04/07/22 16:33:23 UTC
#
# ColumnLabels: energy counts/s
#
407  741.25
406.9  725
406.8  767.5
406.7  735
406.6  722.5
406.5  751.25
406.4  711.25
406.3  763.75
406.2  766.25
406.1  717.5
406  758.75
405.9  827.5
405.8  830
405.7  778.75
405.6  842.5
405.5  771.25
405.4  778.75
405.3  760
405.2  743.75
405.1  765
405  778.75
404.9  803.75
404.8  825
404.7  852.5
404.6  791.25
404.5  790
404.4  850
404.3  818.75
404.2  793.75
404.1  725
404  775
403.9  791.25
403.8  836.25
403.7  876.25
403.6  862.5
403.5  771.25
403.4  800
403.3  805
403.2  818.75
403.1  775
403  757.5
402.9  847.5
402.8  716.25
402.7  821.25
402.6  731.25
402.5  788.75
402.4  767.5
402.3  741.25
402.2  736.25
402.1  705
402  786.25
401.9  738.75
401.8  765
401.7  763.75
401.6  758.75
401.5  725
401.4  690
401.3  768.75
401.2  755
401.1  738.75
401  705
400.9  703.75
400.8  723.75
400.7  758.75
400.6  705
400.5  691.25
400.4  698.75
400.3  751.25
400.2  760
400.1  733.75
400  732.5
399.9  758.75
399.8  745
399.7  812.5
399.6  736.25
399.5  732.5
399.4  743.75
399.3  713.75
399.2  781.25
399.1  718.75
399  753.75
398.9  781.25
398.8  762.5
398.7  745
398.6  708.75
398.5  728.75
398.4  710
398.3  786.25
398.2  756.25
398.1  722.5
398  783.75
397.9  731.25
397.8  742.5
397.7  760
397.6  750
397.5  768.75
397.4  760
397.3  723.75
397.2  745
397.1  747.5
397  702.5

# Region:            O1s
# Acquisition Date:  04/08/22 08:05:47 UTC
# Analysis Method:   XPS
# Analyzer:          Phoibos 100 R6
# Analyzer Lens:     LargeArea:1.5kV
# Analyzer Slit:     1:0.2x20\B:open
# Scan Mode:         FixedAnalyzerTransmission
# Curves/Scan:       1
# Values/Curve:      141
# Dwell Time:        0.8
# Excitation Energy: 1486.61
# Binding Energy:    541
# Pass Energy:       30
# Bias Voltage:      90
# Detector Voltage:  2600
# Eff. Workfunction: 4.309
# Source:            X-Ray Dummy
# Comment:
#
# Cycle: 0
# Number of Scans: 97
#
# Cycle: 0, Curve: 0
# Acquisition Date: 04/08/22 08:05:47 UTC
#
# ColumnLabels: energy counts/s
#
541  931.59794
540.9  944.29124
540.8  940.90206
540.7  946.76546
540.6  947.73196
540.5  954.98711
540.4  950.96649
540.3  956.97165
540.2  957.47423
540.1  966.22423
540  973.72423
539.9  976.50773
539.8  985.41237
539.7  985.3866
539.6  989.63918
539.5  998.06701
539.4  1011.134
539.3  1013.7371
539.2  1015.7474
539.1  1033.8273
539  1036.018
538.9  1052.7577
538.8  1062.384
538.7  1082.7577
538.6  1098.4149
538.5  1127.951
538.4  1152.0747
538.3  1192.1392
538.2  1240.5928
538.1  1289.2526
538  1357.1907
537.9  1427.732
537.8  1519.2397
537.7  1610.5412
537.6  1722.2938
537.5  1847.5258
537.4  1982.5515
537.3  2141.9459
537.2  2311.7784
537.1  2494.5103
537  2676.1985
536.9  2855.0387
536.8  3050.9536
536.7  3229.6649
536.6  3409.4201
536.5  3545.5799
536.4  3672.8222
536.3  3774.549
536.2  3822.1263
536.1  3847.0103
536  3843.8273
535.9  3778.0026
535.8  3690.2062
535.7  3564.4201
535.6  3401.3015
535.5  3231.134
535.4  3058.3634
535.3  2831.134
535.2  2642.1778
535.1  2452.7706
535  2262.9639
534.9  2101.2758
534.8  1936.5077
534.7  1787.7706
534.6  1665.6314
534.5  1573.4407
534.4  1466.6108
534.3  1389.549
534.2  1321.5851
534.1  1270.5928
534  1229.5232
533.9  1182.7062
533.8  1144.7809
533.7  1121.3531
533.6  1096.3531
533.5  1067.0103
533.4  1050.4253
533.3  1020.2448
533.2  1012.2165
533.1  990.1933
533  973.67268
532.9  967.53866
532.8  952.20361
532.7  939.04639
532.6  923.44072
532.5  927.52577
532.4  914.51031
532.3  907.84794
532.2  908.24742
532.1  895.42526
532  897.35825
531.9  891.26289
531.8  890.73454
531.7  892.39691
531.6  883.37629
531.5  880.46392
531.4  886.76546
531.3  883.73711
531.2  884.1366
531.1  877.34536
531  876.23711
530.9  874.74227
530.8  878.35052
530.7  870.82474
530.6  871.73969
530.5  869.87113
530.4  868.87887
530.3  863.99485
530.2  862.61598
530.1  851.86856
530  870.29639
529.9  854.26546
529.8  850.28351
529.7  853.24742
529.6  841.68814
529.5  838.69845
529.4  840.30928
529.3  843.33763
529.2  836.55928
529.1  835.95361
529  830.33505
528.9  832.98969
528.8  830.34794
528.7  831.01804
528.6  836.50773
528.5  835.1933
528.4  842.29381
528.3  840.27062
528.2  841.31443
528.1  852.1134
528  855.3866
527.9  861.03093
527.8  866.77835
527.7  880.33505
527.6  888.26031
527.5  901.80412
527.4  906.45619
527.3  930.55412
527.2  943.73711
527.1  952.73196
527  960.56701

# Region:            Si2p (3)
# Acquisition Date:  04/07/22 16:36:49 UTC
# Analysis Method:   XPS
# Analyzer:          Phoibos 100 R6
# Analyzer Lens:     LargeArea:1.5kV
# Analyzer Slit:     1:0.2x20\B:open
# Scan Mode:         FixedAnalyzerTransmission
# Curves/Scan:       1
# Values/Curve:      111
# Dwell Time:        0.8
# Excitation Energy: 1486.61
# Binding Energy:    110
# Pass Energy:       30
# Bias Voltage:      90
# Detector Voltage:  2600
# Eff. Workfunction: 4.309
# Source:            X-Ray Dummy
# Comment:
#
# Cycle: 0
# Number of Scans: 1
#
# Cycle: 0, Curve: 0
# Acquisition Date: 04/07/22 16:36:49 UTC
#
# ColumnLabels: energy counts/s
#
110  536.25
109.9  521.25
109.8  551.25
109.7  528.75
109.6  615
109.5  542.5
109.4  551.25
109.3  583.75
109.2  585
109.1  607.5
109  688.75
108.9  640
108.8  726.25
108.7  721.25
108.6  702.5
108.5  766.25
108.4  836.25
108.3  888.75
108.2  946.25
108.1  938.75
108  951.25
107.9  968.75
107.8  1017.5
107.7  1046.25
107.6  1021.25
107.5  1133.75
107.4  1125
107.3  1040
107.2  1068.75
107.1  958.75
107  1085
106.9  913.75
106.8  942.5
106.7  922.5
106.6  818.75
106.5  821.25
106.4  866.25
106.3  731.25
106.2  721.25
106.1  703.75
106  638.75
105.9  677.5
105.8  582.5
105.7  612.5
105.6  605
105.5  557.5
105.4  540
105.3  565
105.2  545
105.1  508.75
105  510
104.9  480
104.8  532.5
104.7  526.25
104.6  516.25
104.5  537.5
104.4  490
104.3  522.5
104.2  546.25
104.1  492.5
104  455
103.9  516.25
103.8  450
103.7  503.75
103.6  498.75
103.5  498.75
103.4  512.5
103.3  483.75
103.2  457.5
103.1  486.25
103  483.75
102.9  470
102.8  490
102.7  476.25
102.6  460
102.5  491.25
102.4  457.5
102.3  493.75
102.2  453.75
102.1  508.75
102  447.5
101.9  448.75
101.8  447.5
101.7  446.25
101.6  430
101.5  441.25
101.4  461.25
101.3  471.25
101.2  425
101.1  422.5
101  433.75
100.9  416.25
100.8  373.75
100.7  448.75
100.6  441.25
100.5  427.5
100.4  460
100.3  453.75
100.2  387.5
100.1  412.5
100  417.5
99.9  412.5
99.8  431.25
99.7  413.75
99.6  410
99.5  462.5
99.4  457.5
99.3  448.75
99.2  455
99.1  438.75
99  487.5

# Region:            Cl2p
# Acquisition Date:  04/08/22 03:40:40 UTC
# Analysis Method:   XPS
# Analyzer:          Phoibos 100 R6
# Analyzer Lens:     LargeArea:1.5kV
# Analyzer Slit:     1:0.2x20\B:open
# Scan Mode:         FixedAnalyzerTransmission
# Curves/Scan:       1
# Values/Curve:      111
# Dwell Time:        0.8
# Excitation Energy: 1486.61
# Binding Energy:    207
# Pass Energy:       30
# Bias Voltage:      90
# Detector Voltage:  2600
# Eff. Workfunction: 4.309
# Source:            X-Ray Dummy
# Comment:
#
# Cycle: 0
# Number of Scans: 50
#
# Cycle: 0, Curve: 0
# Acquisition Date: 04/08/22 03:40:40 UTC
#
# ColumnLabels: energy counts/s
#
207  750.575
206.9  753.9
206.8  754.425
206.7  747.875
206.6  753.525
206.5  758.3
206.4  757.4
206.3  758.825
206.2  756.25
206.1  760.475
206  764.45
205.9  767.625
205.8  775.075
205.7  774.275
205.6  783.7
205.5  792.125
205.4  795.025
205.3  804.025
205.2  821.325
205.1  837.35
205  858.725
204.9  876.9
204.8  906.975
204.7  937.55
204.6  964.8
204.5  1004.125
204.4  1052.225
204.3  1102.125
204.2  1135.725
204.1  1187.7
204  1238.35
203.9  1292.625
203.8  1342.225
203.7  1387.375
203.6  1420.225
203.5  1462.925
203.4  1491.075
203.3  1506.625
203.2  1538.9
203.1  1562.1
203  1573.6
202.9  1603.025
202.8  1644.4
202.7  1665.5
202.6  1710.525
202.5  1745.2
202.4  1795.225
202.3  1812.15
202.2  1843.65
202.1  1869.775
202  1909.85
201.9  1907.2
201.8  1884.375
201.7  1841.2
201.6  1800.175
201.5  1745.7
201.4  1658.925
201.3  1570.6
201.2  1480.125
201.1  1392.45
201  1308.875
200.9  1213.3
200.8  1126.975
200.7  1062.025
200.6  1008.15
200.5  949.75
200.4  900.7
200.3  864.55
200.2  833.525
200.1  807
200  788.825
199.9  766.425
199.8  756.525
199.7  754.05
199.6  739.2
199.5  732.425
199.4  726.575
199.3  720.55
199.2  718.725
199.1  714.35
199  707.6
198.9  705.125
198.8  706.725
198.7  713.575
198.6  703.525
198.5  708.575
198.4  716.4
198.3  701.475
198.2  712.5
198.1  708.125
198  721.55
197.9  716.825
197.8  730.425
197.7  726.125
197.6  734.525
197.5  741.475
197.4  744.625
197.3  751.3
197.2  759.725
197.1  767.35
197  774.825
196.9  780.875
196.8  791.45
196.7  786.75
196.6  785.525
196.5  803.475
196.4  791.05
196.3  801.65
196.2  804.325
196.1  794.425
196  784.125

# Region:            Si2p (2)
# Acquisition Date:  04/07/22 21:24:04 UTC
# Analysis Method:   XPS
# Analyzer:          Phoibos 100 R6
# Analyzer Lens:     LargeArea:1.5kV
# Analyzer Slit:     1:0.2x20\B:open
# Scan Mode:         FixedAnalyzerTransmission
# Curves/Scan:       1
# Values/Curve:      391
# Dwell Time:        0.8
# Excitation Energy: 1486.61
# Binding Energy:    128
# Pass Energy:       30
# Bias Voltage:      90
# Detector Voltage:  2600
# Eff. Workfunction: 4.309
# Source:            X-Ray Dummy
# Comment:
#
# Cycle: 0
# Number of Scans: 10
#
# Cycle: 0, Curve: 0
# Acquisition Date: 04/07/22 21:24:04 UTC
#
# ColumnLabels: energy counts/s
#
128  532.5
127.9  536.25
127.8  529.125
127.7  526.375
127.6  533
127.5  537.25
127.4  547
127.3  532.625
127.2  556.125
127.1  541.875
127  535.125
126.9  535.75
126.8  539.75
126.7  544.625
126.6  538.875
126.5  544.125
126.4  533.75
126.3  533.375
126.2  542.375
126.1  575
126  533.625
125.9  535.75
125.8  562.75
125.7  519
125.6  550.875
125.5  525.125
125.4  536.875
125.3  520
125.2  546
125.1  547.375
125  545.5
124.9  542.625
124.8  544.625
124.7  527.25
124.6  539.5
124.5  548.5
124.4  533.125
124.3  528.5
124.2  528.25
124.1  540.125
124  537.125
123.9  535
123.8  546.875
123.7  541.5
123.6  536.5
123.5  557.875
123.4  530.625
123.3  530
123.2  555.75
123.1  529.75
123  534.125
122.9  544.125
122.8  567.875
122.7  535.5
122.6  550.75
122.5  539.625
122.4  548.25
122.3  543.125
122.2  553.625
122.1  558.375
122  548.125
121.9  559.25
121.8  551.25
121.7  549.375
121.6  549
121.5  548.875
121.4  549
121.3  535.5
121.2  559.75
121.1  545.625
121  528.625
120.9  546.25
120.8  541.25
120.7  559.5
120.6  540.125
120.5  539.75
120.4  539.5
120.3  542.375
120.2  549.375
120.1  554.875
120  541.125
119.9  543.375
119.8  537.625
119.7  537.25
119.6  528.625
119.5  553.75
119.4  549.375
119.3  525.75
119.2  550
119.1  537.875
119  527.625
118.9  541
118.8  539.875
118.7  517.875
118.6  545.5
118.5  539
118.4  557.125
118.3  545.625
118.2  525.625
118.1  533.125
118  532.75
117.9  520.25
117.8  528.25
117.7  519.125
117.6  524.75
117.5  523.5
117.4  507.375
117.3  520.5
117.2  512.375
117.1  513.375
117  507.25
116.9  504.125
116.8  511
116.7  508
116.6  492
116.5  499.25
116.4  504.75
116.3  496
116.2  501.625
116.1  503
116  487.625
115.9  493.125
115.8  489.5
115.7  489.125
115.6  494.125
115.5  498.875
115.4  490.625
115.3  487.625
115.2  474.5
115.1  467.75
115  470.375
114.9  481.375
114.8  480.375
114.7  471.875
114.6  474.625
114.5  473.625
114.4  468
114.3  464.625
114.2  485.75
114.1  466
114  460.5
113.9  457.625
113.8  463.5
113.7  476.125
113.6  462.375
113.5  459.375
113.4  483.375
113.3  464.875
113.2  472.25
113.1  464.875
113  474.125
112.9  475.125
112.8  476.25
112.7  467.625
112.6  460
112.5  465.125
112.4  472.375
112.3  462.5
112.2  466.5
112.1  472.125
112  463.5
111.9  475.875
111.8  473.375
111.7  464.25
111.6  465.125
111.5  479.25
111.4  479.625
111.3  466
111.2  480.25
111.1  472.25
111  485.5
110.9  466.75
110.8  480.875
110.7  479.125
110.6  495.5
110.5  475
110.4  474.875
110.3  487.875
110.2  499.5
110.1  482.5
110  493.125
109.9  475.625
109.8  489.375
109.7  507.75
109.6  498.25
109.5  511.875
109.4  517.375
109.3  515.375
109.2  516.875
109.1  538.25
109  570.875
108.9  567.375
108.8  553.5
108.7  604
108.6  627.875
108.5  652.625
108.4  652
108.3  684.5
108.2  723.625
108.1  758
108  787.375
107.9  839
107.8  881.25
107.7  893.25
107.6  919.875
107.5  950.375
107.4  1008.625
107.3  1005.375
107.2  1022.875
107.1  1024.125
107  1026.25
106.9  1027.375
106.8  1031.25
106.7  1015.5
106.6  995.75
106.5  970.875
106.4  937.5
106.3  897.5
106.2  862.375
106.1  787.5
106  771.25
105.9  757.25
105.8  733.25
105.7  680.125
105.6  666.5
105.5  624.125
105.4  625.875
105.3  596.5
105.2  566.75
105.1  548.75
105  541.875
104.9  538
104.8  527
104.7  528.875
104.6  521
104.5  512.75
104.4  500.125
104.3  494.625
104.2  505.75
104.1  479.125
104  477.875
103.9  493.625
103.8  502.5
103.7  491.875
103.6  494.625
103.5  496.75
103.4  476.125
103.3  488.875
103.2  481.5
103.1  472.875
103  470.25
102.9  468.625
102.8  466.75
102.7  462.125
102.6  465
102.5  451.125
102.4  456.625
102.3  453.25
102.2  455
102.1  437.625
102  452.75
101.9  436.75
101.8  442.25
101.7  430.25
101.6  428.75
101.5  425.625
101.4  427
101.3  414.625
101.2  425.625
