# Created by:        SpecsLab Prodigy, Version 4.60.2-r85849
#
# XY-Serializer Export Settings:
#   Comment Prefix:           #
#   Output meta data:         yes
#   Energy Axis:              Binding Energy
#   Count Rate:               Counts per Second
#   Separate Scan Data:       no
#   Separate Channel Data:    no
#   External Channel Data:    yes
#   Transmission Function:    no
#   ErrorBar:                 no
#   Operation Results:        yes
#   Time Zone Format:         UTC
#
# Group:             Spectrum Group
#
# Region:            Ba3d
# Acquisition Date:  04/27/22 09:07:23 UTC
# Analysis Method:   XPS
# Analyzer:          Phoibos 100 R6
# Analyzer Lens:     LargeArea:1.5kV
# Analyzer Slit:     1:0.2x20\B:open
# Scan Mode:         FixedAnalyzerTransmission
# Curves/Scan:       1
# Values/Curve:      121
# Dwell Time:        0.8
# Excitation Energy: 1486.61
# Binding Energy:    789
# Pass Energy:       30
# Bias Voltage:      90
# Detector Voltage:  2600
# Eff. Workfunction: 4.309
# Source:            X-Ray Dummy
# Comment:
#
# Cycle: 0
# Number of Scans: 5
#
# Cycle: 0, Curve: 0
# Acquisition Date: 04/27/22 09:07:23 UTC
#
# ColumnLabels: energy counts/s
#
789  1951
788.9  1902.5
788.8  1869
788.7  1853.5
788.6  1913.25
788.5  1898.75
788.4  1904.5
788.3  1891
788.2  1866.25
788.1  1945.25
788  1870.25
787.9  1925
787.8  1921.75
787.7  1900.75
787.6  1907.5
787.5  1888.75
787.4  1893
787.3  1911.5
787.2  1903
787.1  1880.5
787  1922.5
786.9  1905.25
786.8  1913.75
786.7  1897.5
786.6  1888.25
786.5  1877.25
786.4  1915.5
786.3  1912.75
786.2  1912.75
786.1  1901
786  1903.75
785.9  1901
785.8  1903.5
785.7  1945.5
785.6  1905.5
785.5  1935.25
785.4  1942
785.3  1976.75
785.2  1956.75
785.1  2012.25
785  2006.25
784.9  2058.75
784.8  2021
784.7  2050
784.6  2122.75
784.5  2140.25
784.4  2170
784.3  2248
784.2  2360
784.1  2357.75
784  2417.5
783.9  2479
783.8  2549.25
783.7  2599
783.6  2681
783.5  2759
783.4  2831.5
783.3  2907.5
783.2  2922.75
783.1  3003.75
783  3162.25
782.9  2987.75
782.8  2986.75
782.7  3040
782.6  2996
782.5  2921.5
782.4  2895.75
782.3  2815
782.2  2720.25
782.1  2686.5
782  2596.25
781.9  2524
781.8  2431.5
781.7  2384.5
781.6  2290.75
781.5  2254.5
781.4  2210
781.3  2137.5
781.2  2087
781.1  2054
781  2047.5
780.9  2000.75
780.8  2010.25
780.7  1970
780.6  1920
780.5  1931.75
780.4  1888
780.3  1899.25
780.2  1815.75
780.1  1850.5
780  1806
779.9  1867.25
779.8  1839.5
779.7  1859.5
779.6  1840.25
779.5  1825.25
779.4  1830
779.3  1865.5
779.2  1835
779.1  1807
779  1815.75
778.9  1793.5
778.8  1803.75
778.7  1816
778.6  1806.75
778.5  1778
778.4  1788.75
778.3  1825.25
778.2  1790
778.1  1822.25
778  1782
777.9  1803.25
777.8  1804.25
777.7  1802
777.6  1803.5
777.5  1826.75
777.4  1809.5
777.3  1831.5
777.2  1797.75
777.1  1778
777  1770

# Region:            C1s
# Acquisition Date:  04/27/22 09:09:26 UTC
# Analysis Method:   XPS
# Analyzer:          Phoibos 100 R6
# Analyzer Lens:     LargeArea:1.5kV
# Analyzer Slit:     1:0.2x20\B:open
# Scan Mode:         FixedAnalyzerTransmission
# Curves/Scan:       1
# Values/Curve:      151
# Dwell Time:        0.8
# Excitation Energy: 1486.61
# Binding Energy:    295
# Pass Energy:       30
# Bias Voltage:      90
# Detector Voltage:  2600
# Eff. Workfunction: 4.309
# Source:            X-Ray Dummy
# Comment:
#
# Cycle: 0
# Number of Scans: 5
#
# Cycle: 0, Curve: 0
# Acquisition Date: 04/27/22 09:09:26 UTC
#
# ColumnLabels: energy counts/s
#
295  643.5
294.9  634.25
294.8  618.25
294.7  621.75
294.6  636
294.5  666.75
294.4  617.5
294.3  627.75
294.2  629
294.1  633.5
294  637.75
293.9  633.5
293.8  606
293.7  636.5
293.6  656.25
293.5  635.25
293.4  670.25
293.3  641.75
293.2  647
293.1  651.5
293  630.25
292.9  669.25
292.8  651.75
292.7  662.75
292.6  665.25
292.5  661.5
292.4  657.75
292.3  685
292.2  663.5
292.1  670
292  684
291.9  659.5
291.8  672.5
291.7  675
291.6  687
291.5  691.5
291.4  703
291.3  708.25
291.2  698.25
291.1  730
291  746.75
290.9  716.5
290.8  719.5
290.7  737.5
290.6  774.25
290.5  782.75
290.4  764.75
290.3  796.25
290.2  823
290.1  807.75
290  822.5
289.9  824.5
289.8  839.25
289.7  876.25
289.6  880
289.5  955.5
289.4  960
289.3  940
289.2  969.25
289.1  997.75
289  1061.5
288.9  1015
288.8  1073.5
288.7  1110.5
288.6  1121.5
288.5  1133
288.4  1155.25
288.3  1200.25
288.2  1181.5
288.1  1249.5
288  1288.5
287.9  1350.25
287.8  1356.5
287.7  1364.75
287.6  1350
287.5  1387.25
287.4  1380
287.3  1389.75
287.2  1375.25
287.1  1384.75
287  1328.5
286.9  1338.75
286.8  1263.5
286.7  1183
286.6  1167
286.5  1112.75
286.4  1067
286.3  995
286.2  962.75
286.1  920
286  860.75
285.9  845.25
285.8  784.75
285.7  743.5
285.6  712.75
285.5  712
285.4  688
285.3  661.25
285.2  645.25
285.1  643.5
285  631.5
284.9  635.75
284.8  630.5
284.7  621.5
284.6  624.75
284.5  605
284.4  595.75
284.3  591.25
284.2  612.25
284.1  615
284  618.25
283.9  582.5
283.8  622.25
283.7  609.25
283.6  600
283.5  606
283.4  609
283.3  602.75
283.2  613.25
283.1  583.75
283  589
282.9  597.25
282.8  586
282.7  581.75
282.6  595.25
282.5  593
282.4  598
282.3  584.75
282.2  583.75
282.1  594.75
282  575.25
281.9  595
281.8  582
281.7  592
281.6  597.75
281.5  626
281.4  600.5
281.3  620.75
281.2  605.75
281.1  593.75
281  603.5
280.9  629.75
280.8  592.25
280.7  605.5
280.6  621.25
280.5  595.5
280.4  609.5
280.3  582
280.2  596.75
280.1  614.5
280  606

# Region:            O1s
# Acquisition Date:  04/27/22 08:26:26 UTC
# Analysis Method:   XPS
# Analyzer:          Phoibos 100 R6
# Analyzer Lens:     LargeArea:1.5kV
# Analyzer Slit:     1:0.2x20\B:open
# Scan Mode:         FixedAnalyzerTransmission
# Curves/Scan:       1
# Values/Curve:      141
# Dwell Time:        0.8
# Excitation Energy: 1486.61
# Binding Energy:    541
# Pass Energy:       30
# Bias Voltage:      90
# Detector Voltage:  2600
# Eff. Workfunction: 4.309
# Source:            X-Ray Dummy
# Comment:
#
# Cycle: 0
# Number of Scans: 2
#
# Cycle: 0, Curve: 0
# Acquisition Date: 04/27/22 08:26:26 UTC
#
# ColumnLabels: energy counts/s
#
541  957.5
540.9  963.125
540.8  955
540.7  936.25
540.6  1018.125
540.5  916.875
540.4  938.125
540.3  1001.25
540.2  922.5
540.1  980
540  953.125
539.9  962.5
539.8  986.25
539.7  1036.25
539.6  1005.625
539.5  954.375
539.4  1005
539.3  1012.5
539.2  1023.75
539.1  1026.875
539  1045.625
538.9  1066.875
538.8  1049.375
538.7  1125.625
538.6  1118.125
538.5  1109.375
538.4  1111.875
538.3  1092.5
538.2  1123.75
538.1  1126.25
538  1200.625
537.9  1195.625
537.8  1272.5
537.7  1276.875
537.6  1306.25
537.5  1332.5
537.4  1377.5
537.3  1497.5
537.2  1625.625
537.1  1708.125
537  1850.625
536.9  1990
536.8  2115.625
536.7  2334.375
536.6  2569.375
536.5  2770.625
536.4  3167.5
536.3  3413.125
536.2  3805.625
536.1  4153.125
536  4536.875
535.9  4983.75
535.8  5365
535.7  5661.25
535.6  6153.75
535.5  6322.5
535.4  6614.375
535.3  6753.125
535.2  7123.75
535.1  7020
535  7158.125
534.9  6980
534.8  6833.125
534.7  6410
534.6  6191.875
534.5  5806.875
534.4  5496.25
534.3  4991.875
534.2  4498.75
534.1  4166.25
534  3704.375
533.9  3460.625
533.8  3000
533.7  2661.875
533.6  2483.75
533.5  2213.125
533.4  2006.875
533.3  1818.125
533.2  1616.25
533.1  1553.125
533  1449.375
532.9  1359.375
532.8  1291.875
532.7  1262.5
532.6  1185.625
532.5  1195.625
532.4  1106.25
532.3  1038.125
532.2  1078.125
532.1  1025
532  1010
531.9  985.625
531.8  973.75
531.7  936.25
531.6  951.875
531.5  927.5
531.4  918.125
531.3  911.25
531.2  865
531.1  910.625
531  870.625
530.9  871.25
530.8  844.375
530.7  861.875
530.6  818.125
530.5  823.125
530.4  865
530.3  883.125
530.2  808.75
530.1  869.375
530  850
529.9  777.5
529.8  831.875
529.7  792.5
529.6  871.25
529.5  822.5
529.4  816.25
529.3  860.625
529.2  826.875
529.1  851.25
529  846.25
528.9  785.625
528.8  811.875
528.7  826.25
528.6  806.25
528.5  813.125
528.4  828.125
528.3  825
528.2  851.25
528.1  809.375
528  825
527.9  800.625
527.8  801.25
527.7  813.75
527.6  802.5
527.5  830
527.4  806.875
527.3  811.25
527.2  787.5
527.1  845
527  867.5

# Region:            Cl2p
# Acquisition Date:  04/27/22 09:10:56 UTC
# Analysis Method:   XPS
# Analyzer:          Phoibos 100 R6
# Analyzer Lens:     LargeArea:1.5kV
# Analyzer Slit:     1:0.2x20\B:open
# Scan Mode:         FixedAnalyzerTransmission
# Curves/Scan:       1
# Values/Curve:      111
# Dwell Time:        0.8
# Excitation Energy: 1486.61
# Binding Energy:    207
# Pass Energy:       30
# Bias Voltage:      90
# Detector Voltage:  2600
# Eff. Workfunction: 4.309
# Source:            X-Ray Dummy
# Comment:
#
# Cycle: 0
# Number of Scans: 5
#
# Cycle: 0, Curve: 0
# Acquisition Date: 04/27/22 09:10:56 UTC
#
# ColumnLabels: energy counts/s
#
207  566
206.9  561.75
206.8  568.5
206.7  593.5
206.6  573
206.5  586.75
206.4  600.75
206.3  579.25
206.2  557
206.1  563.75
206  601
205.9  594.5
205.8  574.25
205.7  574.75
205.6  569.25
205.5  561.25
205.4  590
205.3  580.75
205.2  587.5
205.1  595.5
205  575.25
204.9  592
204.8  569.25
204.7  596
204.6  574
204.5  577.75
204.4  564.5
204.3  569.25
204.2  601.75
204.1  565.25
204  551.75
203.9  579.25
203.8  590.75
203.7  596.5
203.6  611.25
203.5  578
203.4  604
203.3  614.5
203.2  594.5
203.1  612
203  602.5
202.9  618.25
202.8  617
202.7  618.5
202.6  623.25
202.5  627.25
202.4  605.75
202.3  621.25
202.2  621
202.1  648.5
202  627
201.9  616.25
201.8  630.75
201.7  645.75
201.6  713
201.5  658.75
201.4  631
201.3  656.5
201.2  659.5
201.1  872.75
201  667.25
200.9  654
200.8  698.75
200.7  656.5
200.6  667
200.5  646.75
200.4  677.5
200.3  694
200.2  660
200.1  654.75
200  632.5
199.9  663.25
199.8  655.5
199.7  630
199.6  633.75
199.5  611.5
199.4  607.5
199.3  600.5
199.2  591
199.1  605.5
199  607
198.9  586.5
198.8  601.75
198.7  594.25
198.6  593.75
198.5  580
198.4  580.25
198.3  593.75
198.2  595.75
198.1  595
198  554
197.9  579.75
197.8  577.25
197.7  581.25
197.6  597.5
197.5  600.75
197.4  574.25
197.3  545.5
197.2  595
197.1  571.5
197  589
196.9  589.75
196.8  577.75
196.7  588.25
196.6  564.25
196.5  584.5
196.4  582.75
196.3  574.5
196.2  603.5
196.1  601
196  588.75

# Region:            N1s
# Acquisition Date:  04/27/22 09:23:31 UTC
# Analysis Method:   XPS
# Analyzer:          Phoibos 100 R6
# Analyzer Lens:     LargeArea:1.5kV
# Analyzer Slit:     1:0.2x20\B:open
# Scan Mode:         FixedAnalyzerTransmission
# Curves/Scan:       1
# Values/Curve:      121
# Dwell Time:        0.8
# Excitation Energy: 1486.61
# Binding Energy:    409
# Pass Energy:       30
# Bias Voltage:      90
# Detector Voltage:  2600
# Eff. Workfunction: 4.309
# Source:            X-Ray Dummy
# Comment:
#
# Cycle: 0
# Number of Scans: 10
#
# Cycle: 0, Curve: 0
# Acquisition Date: 04/27/22 09:23:31 UTC
#
# ColumnLabels: energy counts/s
#
409  612.625
408.9  619.25
408.8  616.5
408.7  626.75
408.6  606.25
408.5  622.125
408.4  610.375
408.3  627.375
408.2  636.75
408.1  631.125
408  625.5
407.9  621.375
407.8  616
407.7  621
407.6  633.125
407.5  616.25
407.4  619.75
407.3  631.5
407.2  632.375
407.1  623.75
407  620.875
406.9  615.75
406.8  622.375
406.7  638.875
406.6  625.875
406.5  624.25
406.4  622.5
406.3  618.75
406.2  602.25
406.1  618.875
406  626.125
405.9  618.625
405.8  629.5
405.7  625.125
405.6  637.125
405.5  634.5
405.4  627.5
405.3  626.875
405.2  643.75
405.1  648
405  627.125
404.9  634.375
404.8  636.625
404.7  632.75
404.6  647.125
404.5  628.875
404.4  643.625
404.3  646.25
404.2  663
404.1  664
404  658.625
403.9  681.625
403.8  677.75
403.7  678.875
403.6  690
403.5  706.625
403.4  714.25
403.3  715.125
403.2  739.25
403.1  727.875
403  740.5
402.9  736.25
402.8  750.125
402.7  757.875
402.6  765.875
402.5  771.125
402.4  756.75
402.3  757.125
402.2  732.25
402.1  759.875
402  768.75
401.9  744.75
401.8  737.625
401.7  744.25
401.6  739.625
401.5  732.125
401.4  718.75
401.3  729.875
401.2  711.375
401.1  704.375
401  697.625
400.9  694.375
400.8  693.375
400.7  655.75
400.6  679.625
400.5  665.5
400.4  651.25
400.3  647.375
400.2  662.75
400.1  679.625
400  625.75
399.9  647
399.8  638.5
399.7  634.25
399.6  622.25
399.5  611.25
399.4  636.375
399.3  621.375
399.2  634.125
399.1  631.375
399  604.375
398.9  622.125
398.8  610.625
398.7  620
398.6  614.125
398.5  619.375
398.4  618
398.3  613.625
398.2  618
398.1  613.875
398  606.75
397.9  608.5
397.8  607.25
397.7  611.75
397.6  624.5
397.5  610.875
397.4  613
397.3  611.375
397.2  620.125
397.1  601
397  609.625

# Region:            Si2p
# Acquisition Date:  04/27/22 08:31:06 UTC
# Analysis Method:   XPS
# Analyzer:          Phoibos 100 R6
# Analyzer Lens:     LargeArea:1.5kV
# Analyzer Slit:     1:0.2x20\B:open
# Scan Mode:         FixedAnalyzerTransmission
# Curves/Scan:       1
# Values/Curve:      111
# Dwell Time:        0.8
# Excitation Energy: 1486.61
# Binding Energy:    112
# Pass Energy:       30
# Bias Voltage:      90
# Detector Voltage:  2600
# Eff. Workfunction: 4.309
# Source:            X-Ray Dummy
# Comment:
#
# Cycle: 0
# Number of Scans: 2
#
# Cycle: 0, Curve: 0
# Acquisition Date: 04/27/22 08:31:06 UTC
#
# ColumnLabels: energy counts/s
#
112  328.75
111.9  337.5
111.8  358.75
111.7  331.25
111.6  336.25
111.5  358.125
111.4  338.75
111.3  371.875
111.2  324.375
111.1  351.25
111  359.375
110.9  320
110.8  323.125
110.7  337.5
110.6  326.25
110.5  347.5
110.4  340
110.3  355
110.2  350
110.1  323.75
110  343.75
109.9  336.875
109.8  315
109.7  339.375
109.6  335
109.5  361.25
109.4  365
109.3  365.625
109.2  338.75
109.1  352.5
109  353.125
108.9  356.25
108.8  385
108.7  365
108.6  375
108.5  356.25
108.4  398.125
108.3  390
108.2  415
108.1  417.5
108  405
107.9  424.375
107.8  431.25
107.7  461.25
107.6  485.625
107.5  506.25
107.4  541.25
107.3  622.5
107.2  653.75
107.1  684.375
107  732.5
106.9  793.125
106.8  818.125
106.7  878.125
106.6  1016.875
106.5  1010.625
106.4  1103.75
106.3  1150.625
106.2  1180
106.1  1221.875
106  1305.625
105.9  1300
105.8  1290
105.7  1282.5
105.6  1273.75
105.5  1275
105.4  1209.375
105.3  1143.125
105.2  1094.375
105.1  1059.375
105  951.875
104.9  870
104.8  825.625
104.7  783.75
104.6  721.25
104.5  641.875
104.4  600.625
104.3  539.375
104.2  516.875
104.1  484.375
104  442.5
103.9  428.75
103.8  427.5
103.7  397.5
103.6  393.75
103.5  361.875
103.4  386.875
103.3  373.75
103.2  350.625
103.1  351.875
103  341.25
102.9  345
102.8  338.75
102.7  370
102.6  331.25
102.5  331.875
102.4  341.25
102.3  336.25
102.2  341.875
102.1  310
102  314.375
101.9  307.5
101.8  324.375
101.7  309.375
101.6  318.75
101.5  333.75
101.4  333.75
101.3  326.875
101.2  323.125
101.1  313.125
101  328.75

# Region:            Na1s
# Acquisition Date:  04/27/22 09:15:18 UTC
# Analysis Method:   XPS
# Analyzer:          Phoibos 100 R6
# Analyzer Lens:     LargeArea:1.5kV
# Analyzer Slit:     1:0.2x20\B:open
# Scan Mode:         FixedAnalyzerTransmission
# Curves/Scan:       1
# Values/Curve:      201
# Dwell Time:        0.8
# Excitation Energy: 1486.61
# Binding Energy:    1085
# Pass Energy:       30
# Bias Voltage:      90
# Detector Voltage:  2600
# Eff. Workfunction: 4.309
# Source:            X-Ray Dummy
# Comment:
#
# Cycle: 0
# Number of Scans: 5
#
# Cycle: 0, Curve: 0
# Acquisition Date: 04/27/22 09:15:18 UTC
#
# ColumnLabels: energy counts/s
#
1085  3325.75
1084.9  3344.75
1084.8  3324
1084.7  3284.75
1084.6  3328.25
1084.5  3347.5
1084.4  3330.5
1084.3  3366.25
1084.2  3338.5
1084.1  3333
1084  3314.5
1083.9  3342.25
1083.8  3312.5
1083.7  3331
1083.6  3320.75
1083.5  3352.75
1083.4  3278.75
1083.3  3289.75
1083.2  3342.5
1083.1  3304.75
1083  3295.5
1082.9  3367.25
1082.8  3324.5
1082.7  3309.75
1082.6  3302
1082.5  3293.25
1082.4  3365
1082.3  3330.75
1082.2  3294.5
1082.1  3319.75
1082  3309.75
1081.9  3332.25
1081.8  3255.25
1081.7  3306.5
1081.6  3320.25
1081.5  3342
1081.4  3341.25
1081.3  3285.25
1081.2  3343.5
1081.1  3324.75
1081  3350
1080.9  3318.25
1080.8  3309.5
1080.7  3337.75
1080.6  3295.25
1080.5  3309.5
1080.4  3297
1080.3  3286.5
1080.2  3327.75
1080.1  3270.25
1080  3330.75
1079.9  3298.5
1079.8  3351.75
1079.7  3324.25
1079.6  3317.25
1079.5  3348.25
1079.4  3315.75
1079.3  3338
1079.2  3265.25
1079.1  3280.75
1079  3356.75
1078.9  3288.75
1078.8  3302.25
1078.7  3336.75
1078.6  3281.5
1078.5  3343.25
1078.4  3318
1078.3  3300.75
1078.2  3267.25
1078.1  3256.25
1078  3344.25
1077.9  3343.75
1077.8  3325.5
1077.7  3326.5
1077.6  3369.5
1077.5  3292.25
1077.4  3294.75
1077.3  3345.25
1077.2  3338
1077.1  3344.75
1077  3333.25
1076.9  3370.75
1076.8  3333.25
1076.7  3314.5
1076.6  3372.75
1076.5  3347.75
1076.4  3375.75
1076.3  3377.5
1076.2  3399.75
1076.1  3373.75
1076  3365
1075.9  3353.25
1075.8  3368.25
1075.7  3382
1075.6  3421.25
1075.5  3391.5
1075.4  3416.5
1075.3  3440
1075.2  3458.25
1075.1  3478.25
1075  3461
1074.9  3519.5
1074.8  3489.25
1074.7  3534.5
1074.6  3530.75
1074.5  3512.25
1074.4  3523.5
1074.3  3568.5
1074.2  3546
1074.1  3477
1074  3540.5
1073.9  3513.25
1073.8  3529
1073.7  3535.5
1073.6  3484.5
1073.5  3460
1073.4  3492.25
1073.3  3485.5
1073.2  3467.75
1073.1  3408
1073  3339.5
1072.9  3429
1072.8  3393.25
1072.7  3435.75
1072.6  3418
1072.5  3405
1072.4  3408.25
1072.3  3383.5
1072.2  3368.5
1072.1  3343
1072  3421.75
1071.9  3381
1071.8  3380.75
1071.7  3318.5
1071.6  3369.25
1071.5  3342.25
1071.4  3347.75
1071.3  3307.75
1071.2  3347
1071.1  3345.75
1071  3356.5
1070.9  3337.25
1070.8  3372
1070.7  3374.25
1070.6  3327
1070.5  3336.5
1070.4  3376.5
1070.3  3323.75
1070.2  3353.25
1070.1  3297
1070  3330.75
1069.9  3306
1069.8  3366.25
1069.7  3338.25
1069.6  3347
1069.5  3411
1069.4  3382.5
1069.3  3353.75
1069.2  3418.25
1069.1  3391.75
1069  3413.25
1068.9  3384.5
1068.8  3457.5
1068.7  3365.75
1068.6  3460.25
1068.5  3458.25
1068.4  3371.25
1068.3  3460.75
1068.2  3442.5
1068.1  3395.5
1068  3410.75
1067.9  3449.75
1067.8  3433.75
1067.7  3411.5
1067.6  3449
1067.5  3449
1067.4  3433.5
1067.3  3457.5
1067.2  3459.25
1067.1  3483.5
1067  3493
1066.9  3522.25
1066.8  3498.5
1066.7  3480.5
1066.6  3444.25
1066.5  3499.25
1066.4  3509.75
1066.3  3505.25
1066.2  3462.75
1066.1  3580
1066  3517
1065.9  3498.75
1065.8  3482
1065.7  3496
1065.6  3540.75
1065.5  3552
1065.4  3534.5
1065.3  3544.75
1065.2  3582.5
1065.1  3529.75
1065  3514.5

# Region:            Ru3p
# Acquisition Date:  04/27/22 08:56:10 UTC
# Analysis Method:   XPS
# Analyzer:          Phoibos 100 R6
# Analyzer Lens:     LargeArea:1.5kV
# Analyzer Slit:     1:0.2x20\B:open
# Scan Mode:         FixedAnalyzerTransmission
# Curves/Scan:       1
# Values/Curve:      471
# Dwell Time:        0.8
# Excitation Energy: 1486.61
# Binding Energy:    505
# Pass Energy:       30
# Bias Voltage:      90
# Detector Voltage:  2600
# Eff. Workfunction: 4.309
# Source:            X-Ray Dummy
# Comment:
#
# Cycle: 0
# Number of Scans: 3
#
# Cycle: 0, Curve: 0
# Acquisition Date: 04/27/22 08:56:10 UTC
#
# ColumnLabels: energy counts/s
#
505  700.83333
504.9  730
504.8  697.5
504.7  725
504.6  696.66667
504.5  680.83333
504.4  697.08333
504.3  689.58333
504.2  731.66667
504.1  680
504  697.91667
503.9  708.75
503.8  713.33333
503.7  690.41667
503.6  690.83333
503.5  762.08333
503.4  705
503.3  674.58333
503.2  720.83333
503.1  692.08333
503  687.5
502.9  689.16667
502.8  694.58333
502.7  679.16667
502.6  718.33333
502.5  678.33333
502.4  719.16667
502.3  686.25
502.2  678.75
502.1  700.41667
502  712.91667
501.9  737.08333
501.8  722.5
501.7  692.08333
501.6  711.66667
501.5  712.08333
501.4  700
501.3  700.83333
501.2  719.16667
501.1  730.41667
501  721.66667
500.9  725.41667
500.8  751.25
500.7  746.66667
500.6  783.75
500.5  732.08333
500.4  715.83333
500.3  751.66667
500.2  757.5
500.1  753.33333
500  697.5
499.9  730
499.8  756.25
499.7  733.33333
499.6  767.5
499.5  753.75
499.4  721.66667
499.3  725
499.2  745
499.1  717.08333
499  742.5
498.9  728.33333
498.8  722.5
498.7  736.25
