# Created by:        SpecsLab Prodigy, Version 4.60.2-r85849 
#
# XY-Serializer Export Settings:
#   Comment Prefix:           #
#   Output meta data:         yes
#   Energy Axis:              Binding Energy
#   Count Rate:               Counts per Second
#   Separate Scan Data:       no
#   Separate Channel Data:    no
#   External Channel Data:    yes
#   Transmission Function:    no
#   ErrorBar:                 no
#   Operation Results:        yes
#   Time Zone Format:         UTC
#
# Group:             Spectrum Group
#
# Region:            Ba3d
# Acquisition Date:  12/23/21 09:07:54 UTC
# Analysis Method:   XPS
# Analyzer:          Phoibos 100 R6
# Analyzer Lens:     LargeArea:1.5kV
# Analyzer Slit:     1:0.2x20\B:open
# Scan Mode:         FixedAnalyzerTransmission
# Curves/Scan:       1
# Values/Curve:      111
# Dwell Time:        0.8
# Excitation Energy: 1486.61
# Binding Energy:    786
# Pass Energy:       30
# Bias Voltage:      90
# Detector Voltage:  2600
# Eff. Workfunction: 4.309
# Source:            X-Ray Dummy
# Comment:           
#
# Cycle: 0
# Number of Scans: 4
#
# Cycle: 0, Curve: 0
# Acquisition Date: 12/23/21 09:07:54 UTC
#
# ColumnLabels: energy counts/s
#
786  2399.0625
785.9  2492.5
785.8  2450
785.7  2443.4375
785.6  2467.5
785.5  2445.9375
785.4  2445.625
785.3  2425.3125
785.2  2511.25
785.1  2478.125
785  2510.3125
784.9  2515.3125
784.8  2595.625
784.7  2628.4375
784.6  2693.4375
784.5  2732.1875
784.4  2798.4375
784.3  2875.625
784.2  2946.25
784.1  3075
784  3074.6875
783.9  3255
783.8  3373.125
783.7  3508.75
783.6  3602.5
783.5  3740.625
783.4  3880.9375
783.3  4046.25
783.2  4137.8125
783.1  4278.4375
783  4261.875
782.9  4436.875
782.8  4401.5625
782.7  4411.25
782.6  4430.625
782.5  4369.375
782.4  4337.5
782.3  4190.625
782.2  4107.5
782.1  3974.375
782  3915.3125
781.9  3716.25
781.8  3571.25
781.7  3473.75
781.6  3318.125
781.5  3242.1875
781.4  3047.5
781.3  2981.25
781.2  2883.4375
781.1  2776.5625
781  2701.5625
780.9  2627.5
780.8  2575.3125
780.7  2568.4375
780.6  2506.875
780.5  2486.25
780.4  2461.5625
780.3  2462.1875
780.2  2364.375
780.1  2379.6875
780  2326.25
779.9  2315.625
779.8  2322.1875
779.7  2312.8125
779.6  2348.125
779.5  2273.125
779.4  2308.75
779.3  2264.0625
779.2  2311.5625
779.1  2220.9375
779  2260.9375
778.9  2240.9375
778.8  2295.625
778.7  2259.375
778.6  2221.875
778.5  2403.4375
778.4  2300.625
778.3  2205
778.2  2232.5
778.1  2216.5625
778  2207.8125
777.9  2249.0625
777.8  2207.1875
777.7  2157.8125
777.6  2215
777.5  2190.3125
777.4  2269.375
777.3  2261.25
777.2  2219.6875
777.1  2177.1875
777  2203.75
776.9  2198.75
776.8  2222.1875
776.7  2189.0625
776.6  2212.1875
776.5  2181.875
776.4  2156.875
776.3  2210.3125
776.2  2220
776.1  2195.625
776  2223.75
775.9  2223.4375
775.8  2189.0625
775.7  2202.8125
775.6  2180.9375
775.5  2186.25
775.4  2216.5625
775.3  2197.1875
775.2  2173.125
775.1  2179.0625
775  2191.5625

# Region:            Cl2p
# Acquisition Date:  12/23/21 09:22:58 UTC
# Analysis Method:   XPS
# Analyzer:          Phoibos 100 R6
# Analyzer Lens:     LargeArea:1.5kV
# Analyzer Slit:     1:0.2x20\B:open
# Scan Mode:         FixedAnalyzerTransmission
# Curves/Scan:       1
# Values/Curve:      91
# Dwell Time:        0.8
# Excitation Energy: 1486.61
# Binding Energy:    204
# Pass Energy:       30
# Bias Voltage:      90
# Detector Voltage:  2600
# Eff. Workfunction: 4.309
# Source:            X-Ray Dummy
# Comment:           
#
# Cycle: 0
# Number of Scans: 6
#
# Cycle: 0, Curve: 0
# Acquisition Date: 12/23/21 09:22:58 UTC
#
# ColumnLabels: energy counts/s
#
204  718.125
203.9  711.25
203.8  684.16667
203.7  683.125
203.6  718.75
203.5  702.70833
203.4  718.54167
203.3  709.16667
203.2  724.375
203.1  721.66667
203  747.29167
202.9  745.83333
202.8  752.70833
202.7  751.66667
202.6  743.33333
202.5  762.5
202.4  780.83333
202.3  781.04167
202.2  794.58333
202.1  778.75
202  803.125
201.9  785.83333
201.8  791.875
201.7  805.83333
201.6  848.125
201.5  800.625
201.4  806.04167
201.3  807.29167
201.2  820.20833
201.1  845
201  821.66667
200.9  852.91667
200.8  871.875
200.7  841.25
200.6  869.79167
200.5  852.91667
200.4  868.54167
200.3  853.54167
200.2  848.125
200.1  839.58333
200  823.125
199.9  821.25
199.8  800.83333
199.7  790.83333
199.6  770
199.5  779.16667
199.4  747.5
199.3  741.04167
199.2  746.04167
199.1  714.79167
199  710.625
198.9  709.58333
198.8  723.75
198.7  716.25
198.6  696.66667
198.5  706.66667
198.4  677.08333
198.3  688.125
198.2  681.875
198.1  675.83333
198  689.375
197.9  674.58333
197.8  688.75
197.7  678.54167
197.6  678.33333
197.5  677.29167
197.4  675
197.3  685.83333
197.2  694.79167
197.1  698.75
197  682.91667
196.9  692.91667
196.8  662.29167
196.7  670.625
196.6  696.04167
196.5  684.58333
196.4  680.41667
196.3  674.375
196.2  690.83333
196.1  677.29167
196  678.75
195.9  700.41667
195.8  684.79167
195.7  674.58333
195.6  665.83333
195.5  699.79167
195.4  689.375
195.3  695.625
195.2  696.25
195.1  661.875
195  698.54167

# Region:            C1s
# Acquisition Date:  12/23/21 09:24:44 UTC
# Analysis Method:   XPS
# Analyzer:          Phoibos 100 R6
# Analyzer Lens:     LargeArea:1.5kV
# Analyzer Slit:     1:0.2x20\B:open
# Scan Mode:         FixedAnalyzerTransmission
# Curves/Scan:       1
# Values/Curve:      131
# Dwell Time:        0.8
# Excitation Energy: 1486.61
# Binding Energy:    295
# Pass Energy:       30
# Bias Voltage:      90
# Detector Voltage:  2600
# Eff. Workfunction: 4.309
# Source:            X-Ray Dummy
# Comment:           
#
# Cycle: 0
# Number of Scans: 6
#
# Cycle: 0, Curve: 0
# Acquisition Date: 12/23/21 09:24:44 UTC
#
# ColumnLabels: energy counts/s
#
295  765.83333
294.9  775.20833
294.8  777.29167
294.7  776.66667
294.6  773.75
294.5  783.54167
294.4  781.04167
294.3  781.04167
294.2  775.20833
294.1  772.91667
294  754.79167
293.9  778.33333
293.8  783.75
293.7  791.04167
293.6  771.45833
293.5  782.08333
293.4  793.75
293.3  793.125
293.2  778.125
293.1  784.79167
293  756.25
292.9  791.66667
292.8  809.58333
292.7  788.95833
292.6  779.79167
292.5  811.04167
292.4  793.95833
292.3  775.41667
292.2  805.83333
292.1  815.20833
292  790.20833
291.9  799.375
291.8  794.375
291.7  806.45833
291.6  814.58333
291.5  836.04167
291.4  805.83333
291.3  833.54167
291.2  824.375
291.1  823.75
291  858.125
290.9  831.25
290.8  884.16667
290.7  898.54167
290.6  873.54167
290.5  924.79167
290.4  919.375
290.3  943.125
290.2  921.04167
290.1  975.83333
290  986.04167
289.9  1024.5833
289.8  1040.625
289.7  1101.875
289.6  1107.5
289.5  1178.5417
289.4  1187.5
289.3  1242.2917
289.2  1298.9583
289.1  1332.9167
289  1393.9583
288.9  1396.875
288.8  1437.5
288.7  1485.8333
288.6  1494.5833
288.5  1541.4583
288.4  1602.5
288.3  1610.2083
288.2  1618.75
288.1  1613.75
288  1624.375
287.9  1669.375
287.8  1667.2917
287.7  1658.75
287.6  1701.25
287.5  1667.0833
287.4  1657.7083
287.3  1636.25
287.2  1654.7917
287.1  1606.0417
287  1611.4583
286.9  1596.4583
286.8  1564.1667
286.7  1485.4167
286.6  1448.9583
286.5  1393.5417
286.4  1352.5
286.3  1289.375
286.2  1228.5417
286.1  1187.2917
286  1118.125
285.9  1080.2083
285.8  1004.5833
285.7  980.41667
285.6  953.33333
285.5  902.70833
285.4  855
285.3  822.5
285.2  811.875
285.1  814.375
285  770.41667
284.9  762.70833
284.8  780.41667
284.7  778.54167
284.6  748.75
284.5  740
284.4  734.79167
284.3  718.125
284.2  746.04167
284.1  717.08333
284  716.04167
283.9  712.5
283.8  699.58333
283.7  728.54167
283.6  733.95833
283.5  725.625
283.4  717.08333
283.3  729.375
283.2  736.66667
283.1  713.75
283  735.83333
282.9  711.04167
282.8  727.29167
282.7  724.375
282.6  728.75
282.5  712.5
282.4  725.41667
282.3  745.83333
282.2  741.25
282.1  736.45833
282  704.79167

# Region:            O1s
# Acquisition Date:  12/23/21 09:13:14 UTC
# Analysis Method:   XPS
# Analyzer:          Phoibos 100 R6
# Analyzer Lens:     LargeArea:1.5kV
# Analyzer Slit:     1:0.2x20\B:open
# Scan Mode:         FixedAnalyzerTransmission
# Curves/Scan:       1
# Values/Curve:      171
# Dwell Time:        0.8
# Excitation Energy: 1486.61
# Binding Energy:    545
# Pass Energy:       30
# Bias Voltage:      90
# Detector Voltage:  2600
# Eff. Workfunction: 4.309
# Source:            X-Ray Dummy
# Comment:           
#
# Cycle: 0
# Number of Scans: 4
#
# Cycle: 0, Curve: 0
# Acquisition Date: 12/23/21 09:13:14 UTC
#
# ColumnLabels: energy counts/s
#
545  1272.1875
544.9  1240.9375
544.8  1234.0625
544.7  1239.0625
544.6  1231.25
544.5  1181.5625
544.4  1191.875
544.3  1203.4375
544.2  1205.625
544.1  1215.3125
544  1195.3125
543.9  1187.5
543.8  1192.1875
543.7  1137.5
543.6  1195.625
543.5  1161.25
543.4  1164.6875
543.3  1173.4375
543.2  1201.5625
543.1  1155.9375
543  1142.8125
542.9  1151.875
542.8  1155
542.7  1141.5625
542.6  1125.625
542.5  1131.25
542.4  1145.9375
542.3  1144.0625
542.2  1150.3125
542.1  1148.4375
542  1119.6875
541.9  1129.375
541.8  1126.5625
541.7  1160.3125
541.6  1144.6875
541.5  1143.4375
541.4  1118.125
541.3  1120.9375
541.2  1136.875
541.1  1099.6875
541  1127.5
540.9  1107.1875
540.8  1120.3125
540.7  1100.9375
540.6  1155.625
540.5  1104.375
540.4  1131.875
540.3  1123.125
540.2  1120
540.1  1092.1875
540  1110.625
539.9  1146.5625
539.8  1156.5625
539.7  1134.6875
539.6  1165.3125
539.5  1161.5625
539.4  1153.125
539.3  1208.4375
539.2  1179.0625
539.1  1190
539  1182.5
538.9  1205
538.8  1191.25
538.7  1231.5625
538.6  1256.875
538.5  1264.6875
538.4  1248.4375
538.3  1296.5625
538.2  1296.875
538.1  1313.4375
538  1337.1875
537.9  1392.8125
537.8  1445
537.7  1434.6875
537.6  1455.3125
537.5  1518.125
537.4  1618.125
537.3  1620.3125
537.2  1771.5625
537.1  1861.5625
537  1984.6875
536.9  2198.125
536.8  2301.25
536.7  2518.75
536.6  2786.25
536.5  3027.1875
536.4  3286.875
536.3  3650.9375
536.2  4001.5625
536.1  4365.625
536  4732.5
535.9  5156.875
535.8  5598.75
535.7  5935.625
535.6  6337.1875
535.5  6685.3125
535.4  7010
535.3  7238.75
535.2  7285.9375
535.1  7428.75
535  7446.875
534.9  7343.125
534.8  7240
534.7  7162.5
534.6  6798.4375
534.5  6343.75
534.4  6086.5625
534.3  5595
534.2  5269.375
534.1  4835.9375
534  4459.0625
533.9  4045.3125
533.8  3662.8125
533.7  3330.3125
533.6  2968.125
533.5  2720.9375
533.4  2445.625
533.3  2217.5
533.2  1998.125
533.1  1924.6875
533  1812.5
532.9  1656.5625
532.8  1547.8125
532.7  1515.625
532.6  1405.9375
532.5  1363.4375
532.4  1351.875
532.3  1268.125
532.2  1277.8125
532.1  1182.8125
532  1210.3125
531.9  1181.875
531.8  1158.125
531.7  1147.5
531.6  1126.875
531.5  1086.875
531.4  1075.9375
531.3  1049.375
531.2  1050.3125
531.1  1049.6875
531  1038.75
530.9  1057.1875
530.8  996.25
530.7  1019.0625
530.6  1036.875
530.5  991.875
530.4  981.25
530.3  1004.0625
530.2  990.9375
530.1  990.3125
530  1001.875
529.9  1007.1875
529.8  995.625
529.7  994.0625
529.6  949.375
529.5  1007.1875
529.4  996.875
529.3  952.8125
529.2  990.3125
529.1  960.3125
529  954.375
528.9  950.625
528.8  964.375
528.7  971.5625
528.6  995.9375
528.5  964.375
528.4  964.6875
528.3  936.5625
528.2  924.0625
528.1  940.3125
528  938.75

# Region:            Si2p
# Acquisition Date:  12/23/21 09:15:09 UTC
# Analysis Method:   XPS
# Analyzer:          Phoibos 100 R6
# Analyzer Lens:     LargeArea:1.5kV
# Analyzer Slit:     1:0.2x20\B:open
# Scan Mode:         FixedAnalyzerTransmission
# Curves/Scan:       1
# Values/Curve:      141
# Dwell Time:        0.8
# Excitation Energy: 1486.61
# Binding Energy:    112
# Pass Energy:       30
# Bias Voltage:      90
# Detector Voltage:  2600
# Eff. Workfunction: 4.309
# Source:            X-Ray Dummy
# Comment:           
#
# Cycle: 0
# Number of Scans: 4
#
# Cycle: 0, Curve: 0
# Acquisition Date: 12/23/21 09:15:09 UTC
#
# ColumnLabels: energy counts/s
#
112  417.5
111.9  426.25
111.8  390
111.7  417.1875
111.6  408.125
111.5  393.4375
111.4  405.625
111.3  396.875
111.2  406.5625
111.1  405.3125
111  392.8125
110.9  400.9375
110.8  392.5
110.7  391.5625
110.6  425
110.5  401.5625
110.4  387.1875
110.3  410.3125
110.2  434.0625
110.1  389.0625
110  423.4375
109.9  407.1875
109.8  433.125
109.7  413.4375
109.6  401.5625
109.5  426.875
109.4  411.5625
109.3  409.0625
109.2  417.8125
109.1  413.4375
109  399.0625
108.9  435
108.8  428.4375
108.7  434.6875
108.6  447.5
108.5  427.1875
108.4  447.1875
108.3  447.1875
108.2  487.1875
108.1  471.25
108  460.9375
107.9  508.4375
107.8  528.4375
107.7  538.75
107.6  560.625
107.5  585.3125
107.4  639.0625
107.3  659.0625
107.2  709.375
107.1  731.25
107  779.375
106.9  893.125
106.8  883.125
106.7  973.125
106.6  1079.0625
106.5  1107.5
106.4  1147.8125
106.3  1212.1875
106.2  1248.75
106.1  1281.5625
106  1309.375
105.9  1314.6875
105.8  1357.1875
105.7  1331.25
105.6  1370.625
105.5  1333.75
105.4  1260.9375
105.3  1222.8125
105.2  1193.125
105.1  1173.4375
105  1084.0625
104.9  1061.5625
104.8  1041.25
104.7  953.4375
104.6  887.8125
104.5  813.75
104.4  786.25
104.3  710
104.2  694.6875
104.1  660.625
104  601.875
103.9  560.625
103.8  539.6875
103.7  536.25
103.6  489.0625
103.5  477.8125
103.4  449.6875
103.3  461.5625
103.2  454.375
103.1  436.5625
103  438.125
102.9  415.9375
102.8  432.8125
102.7  393.125
102.6  403.125
102.5  408.75
102.4  424.0625
102.3  407.1875
102.2  394.6875
102.1  398.75
102  408.75
101.9  408.4375
101.8  377.5
101.7  383.4375
101.6  369.0625
101.5  389.0625
101.4  379.6875
101.3  371.5625
101.2  404.375
101.1  382.8125
101  378.75
100.9  395.625
100.8  377.8125
100.7  368.125
100.6  369.375
100.5  367.5
100.4  373.4375
100.3  388.75
100.2  380
100.1  394.375
100  367.5
99.9  372.1875
99.8  383.75
99.7  382.8125
99.6  362.8125
99.5  378.125
99.4  367.5
99.3  376.5625
99.2  360.9375
99.1  375.9375
99  350
98.9  353.75
98.8  352.5
98.7  352.1875
98.6  362.5
98.5  350.9375
98.4  377.1875
98.3  391.25
98.2  375.9375
98.1  389.375
98  380.625

# Region:            N1s
# Acquisition Date:  12/23/21 09:30:04 UTC
# Analysis Method:   XPS
# Analyzer:          Phoibos 100 R6
# Analyzer Lens:     LargeArea:1.5kV
# Analyzer Slit:     1:0.2x20\B:open
# Scan Mode:         FixedAnalyzerTransmission
# Curves/Scan:       1
# Values/Curve:      131
# Dwell Time:        0.8
# Excitation Energy: 1486.61
# Binding Energy:    408
# Pass Energy:       30
# Bias Voltage:      90
# Detector Voltage:  2600
# Eff. Workfunction: 4.309
# Source:            X-Ray Dummy
# Comment:           
#
# Cycle: 0
# Number of Scans: 8
#
# Cycle: 0, Curve: 0
# Acquisition Date: 12/23/21 09:30:04 UTC
#
# ColumnLabels: energy counts/s
#
408  745.15625
407.9  752.34375
407.8  756.25
407.7  743.28125
407.6  739.375
407.5  742.03125
407.4  746.40625
407.3  762.1875
407.2  751.09375
407.1  750.3125
407  741.40625
406.9  748.4375
406.8  733.59375
406.7  765.3125
406.6  750.625
406.5  745.3125
406.4  731.71875
406.3  743.59375
406.2  744.53125
406.1  736.71875
406  746.09375
405.9  757.65625
405.8  755.625
405.7  743.75
405.6  770.15625
405.5  762.96875
405.4  740.3125
405.3  749.21875
405.2  745.46875
405.1  742.34375
405  776.71875
404.9  769.6875
404.8  744.21875
404.7  755.15625
404.6  766.25
404.5  789.6875
404.4  764.0625
404.3  757.96875
404.2  772.96875
404.1  776.40625
404  777.03125
403.9  779.375
403.8  788.75
403.7  813.28125
403.6  823.75
403.5  807.8125
403.4  831.40625
403.3  843.90625
403.2  848.59375
403.1  836.40625
403  862.65625
402.9  846.25
402.8  872.96875
402.7  858.4375
402.6  858.59375
402.5  861.71875
402.4  871.71875
402.3  866.875
402.2  889.84375
402.1  887.5
402  899.0625
401.9  866.09375
401.8  887.96875
401.7  901.09375
401.6  892.65625
401.5  879.375
401.4  905.9375
401.3  883.28125
401.2  888.4375
401.1  883.90625
401  870.9375
400.9  866.25
400.8  876.09375
400.7  837.8125
400.6  855.78125
400.5  847.03125
400.4  834.375
400.3  817.65625
400.2  819.6875
400.1  797.34375
400  775.78125
399.9  792.96875
399.8  778.28125
399.7  773.90625
399.6  760.15625
399.5  754.0625
399.4  745.78125
399.3  735.78125
399.2  761.25
399.1  732.5
399  739.53125
398.9  739.53125
398.8  741.09375
398.7  734.84375
398.6  733.90625
398.5  749.53125
398.4  702.1875
398.3  734.0625
398.2  727.8125
398.1  721.71875
398  736.09375
397.9  743.125
397.8  743.75
397.7  729.0625
397.6  722.8125
397.5  729.0625
397.4  737.5
397.3  716.25
397.2  725
397.1  724.6875
397  720
396.9  737.8125
396.8  722.1875
396.7  727.65625
396.6  722.65625
396.5  716.09375
396.4  723.28125
396.3  723.59375
396.2  706.71875
396.1  743.75
396  778.75
395.9  736.09375
395.8  722.8125
395.7  730.78125
395.6  742.8125
395.5  717.8125
395.4  762.65625
395.3  728.4375
395.2  722.5
395.1  712.5
395  751.25

# Region:            overview
# Acquisition Date:  12/23/21 08:45:19 UTC
# Analysis Method:   XPS
# Analyzer:          Phoibos 100 R6
# Analyzer Lens:     LargeArea:1.5kV
# Analyzer Slit:     1:0.2x20\B:open
# Scan Mode:         FixedAnalyzerTransmission
# Curves/Scan:       1
# Values/Curve:      1205
# Dwell Time:        0.2
# Excitation Energy: 1486.61
# Binding Energy:    1200
# Pass Energy:       50
# Bias Voltage:      90
# Detector Voltage:  2600
# Eff. Workfunction: 4.309
# Source:            X-Ray Dummy
# Comment:           
#
# Cycle: 0
# Number of Scans: 1
#
# Cycle: 0, Curve: 0
# Acquisition Date: 12/23/21 08:45:19 UTC
#
# ColumnLabels: energy counts/s
#
1200  8795
1199  8705
1198  8735
1197  8575
1196  8685
1195  8745
1194  8930
1193  8510
1192  8585
1191  8820
1190  8420
1189  8700
1188  8485
1187  8490
1186  8520
1185  8800
1184  8605
1183  8355
1182  8400
1181  8530
1180  9020
1179  8435
1178  8480
1177  8345
1176  8630
1175  8940
1174  8590
1173  8815
1172  8550
1171  8595
1170  8715
1169  8500
1168  8245
1167  8520
1166  8705
1165  8665
1164  8550
1163  8695
1162  8760
1161  8245
1160  8850
1159  8725
1158  8795
1157  8650
1156  8790
1155  8810
1154  8660
1153  8170
1152  8440
1151  8520
1150  8395
1149  8330
1148  8190
1147  8545
1146  8505
1145  8450
1144  8760
1143  8755
1142  8985
1141  8925
1140  8930
1139  9090
1138  8650
1137  8975
1136  8870
1135  8955
1134  8285
1133  8345
1132  8760
1131  8950
1130  8705
1129  8450
1128  8385
1127  8520
1126  8785
1125  8835
1124  8765
1123  8655
1122  9070
1121  8410
1120  8615
1119  9050
1118  8935
1117  8385
1116  8490
1115  8300
1114  8795
1113  8860
1112  8885
1111  8810
1110  8625
1109  8785
1108  8935
1107  9045
1106  8810
1105  8805
1104  8830
1103  8710
1102  8820
1101  8865
1100  8990
1099  8770
1098  8500
1097  8485
1096  8645
1095  8985
1094  8730
1093  8990
1092  8840
1091  8340
1090  9035
1089  8915
1088  8880
1087  8580
1086  8760
1085  8400
1084  9090
1083  8180
1082  8785
1081  8965
1080  9095
1079  8325
1078  9165
1077  9060
1076  8710
1075  8905
1074  8585
1073  8675
1072  8865
1071  9115
1070  9035
1069  9295
1068  9345
1067  9425
1066  9265
1065  9155
1064  9180
1063  9060
1062  8930
1061  8785
1060  8985
1059  8700
1058  8570
1057  9205
1056  8530
1055  9170
1054  8710
1053  8760
1052  8815
1051  8470
1050  8735
1049  8860
1048  8600
1047  8810
1046  8785
1045  8765
1044  8415
1043  8835
1042  8820
1041  8820
1040  8715
1039  8450
1038  8400
1037  8455
1036  8775
1035  8815
1034  8355
1033  8800
1032  8445
1031  8835
1030  8785
1029  8595
1028  9090
1027  8620
1026  8810
1025  8750
1024  8760
1023  8450
1022  8855
1021  8985
1020  8665
1019  8700
1018  8375
1017  8555
1016  8950
1015  8825
1014  8595
1013  7950
1012  8300
1011  8745
1010  8305
1009  8280
1008  8515
1007  9080
1006  9160
1005  8915
1004  9100
1003  9015
1002  9080
1001  8895
1000  8880
999  8595
998  8195
997  8420
996  8260
995  8125
994  7805
993  8065
992  7770
991  7780
990  7800
989  7850
988  7665
987  8020
986  8300
985  8110
984  9070
983  8900
982  9315
981  8835
980  8820
979  8560
978  7790
977  7795
976  7930
975  7445
974  7155
973  7325
972  6735
971  6870
970  6940
969  6380
968  6360
967  6405
966  6345
965  6060
964  6020
963  6520
962  6130
961  6380
960  6355
959  6175
958  6430
