# Created by:        SpecsLab Prodigy, Version 4.60.2-r85849 
#
# XY-Serializer Export Settings:
#   Comment Prefix:           #
#   Output meta data:         yes
#   Energy Axis:              Binding Energy
#   Count Rate:               Counts per Second
#   Separate Scan Data:       no
#   Separate Channel Data:    no
#   External Channel Data:    yes
#   Transmission Function:    no
#   ErrorBar:                 no
#   Operation Results:        yes
#   Time Zone Format:         UTC
#
# Group:             Spectrum Group
#
# Region:            C1s
# Acquisition Date:  12/22/21 10:13:02 UTC
# Analysis Method:   XPS
# Analyzer:          Phoibos 100 R6
# Analyzer Lens:     LargeArea:1.5kV
# Analyzer Slit:     1:0.2x20\B:open
# Scan Mode:         FixedAnalyzerTransmission
# Curves/Scan:       1
# Values/Curve:      131
# Dwell Time:        0.8
# Excitation Energy: 1486.61
# Binding Energy:    295
# Pass Energy:       30
# Bias Voltage:      90
# Detector Voltage:  2600
# Eff. Workfunction: 4.309
# Source:            X-Ray Dummy
# Comment:           
#
# Cycle: 0
# Number of Scans: 4
#
# Cycle: 0, Curve: 0
# Acquisition Date: 12/22/21 10:13:02 UTC
#
# ColumnLabels: energy counts/s
#
295  682.1875
294.9  799.0625
294.8  695
294.7  686.875
294.6  712.1875
294.5  694.0625
294.4  681.5625
294.3  704.6875
294.2  678.125
294.1  685.3125
294  686.5625
293.9  680.625
293.8  658.4375
293.7  684.375
293.6  675.9375
293.5  693.4375
293.4  705.9375
293.3  688.75
293.2  666.875
293.1  696.25
293  705
292.9  693.75
292.8  695
292.7  718.4375
292.6  681.25
292.5  650.625
292.4  705
292.3  667.8125
292.2  684.6875
292.1  693.4375
292  718.75
291.9  671.5625
291.8  687.1875
291.7  672.5
291.6  682.1875
291.5  667.1875
291.4  651.5625
291.3  711.25
291.2  700
291.1  695.625
291  684.6875
290.9  668.75
290.8  705.9375
290.7  740.9375
290.6  733.125
290.5  695.9375
290.4  719.0625
290.3  705.9375
290.2  699.375
290.1  708.125
290  704.375
289.9  721.5625
289.8  722.8125
289.7  704.375
289.6  709.375
289.5  720.9375
289.4  725.625
289.3  726.25
289.2  720.9375
289.1  731.875
289  735.3125
288.9  750
288.8  759.0625
288.7  744.0625
288.6  770
288.5  768.125
288.4  762.1875
288.3  784.6875
288.2  780.625
288.1  780
288  740.625
287.9  758.4375
287.8  768.125
287.7  789.0625
287.6  770.3125
287.5  765.9375
287.4  787.1875
287.3  767.5
287.2  757.8125
287.1  769.375
287  775.625
286.9  738.125
286.8  742.5
286.7  734.0625
286.6  729.375
286.5  736.5625
286.4  740.625
286.3  747.1875
286.2  717.8125
286.1  713.75
286  710.3125
285.9  755
285.8  720.3125
285.7  695.3125
285.6  688.125
285.5  682.5
285.4  685.625
285.3  706.25
285.2  690.9375
285.1  697.5
285  676.875
284.9  704.375
284.8  700
284.7  682.1875
284.6  670.3125
284.5  706.875
284.4  702.8125
284.3  688.75
284.2  672.5
284.1  678.75
284  685.9375
283.9  685.9375
283.8  698.125
283.7  692.8125
283.6  720.9375
283.5  692.8125
283.4  700.3125
283.3  708.125
283.2  711.5625
283.1  693.75
283  696.875
282.9  675.625
282.8  706.5625
282.7  711.875
282.6  705.625
282.5  678.75
282.4  715.625
282.3  671.5625
282.2  695.3125
282.1  675.9375
282  672.1875

# Region:            Si2p
# Acquisition Date:  12/22/21 10:09:29 UTC
# Analysis Method:   XPS
# Analyzer:          Phoibos 100 R6
# Analyzer Lens:     LargeArea:1.5kV
# Analyzer Slit:     1:0.2x20\B:open
# Scan Mode:         FixedAnalyzerTransmission
# Curves/Scan:       1
# Values/Curve:      141
# Dwell Time:        0.8
# Excitation Energy: 1486.61
# Binding Energy:    112
# Pass Energy:       30
# Bias Voltage:      90
# Detector Voltage:  2600
# Eff. Workfunction: 4.309
# Source:            X-Ray Dummy
# Comment:           
#
# Cycle: 0
# Number of Scans: 3
#
# Cycle: 0, Curve: 0
# Acquisition Date: 12/22/21 10:09:29 UTC
#
# ColumnLabels: energy counts/s
#
112  420.83333
111.9  400.41667
111.8  436.66667
111.7  400.41667
111.6  433.75
111.5  431.25
111.4  436.25
111.3  411.66667
111.2  429.16667
111.1  428.75
111  427.5
110.9  432.08333
110.8  421.25
110.7  468.33333
110.6  436.25
110.5  457.91667
110.4  475.41667
110.3  468.33333
110.2  465
110.1  496.25
110  528.33333
109.9  519.16667
109.8  529.58333
109.7  565.41667
109.6  597.91667
109.5  650
109.4  652.08333
109.3  694.58333
109.2  791.66667
109.1  850.83333
109  864.16667
108.9  932.5
108.8  1057.0833
108.7  1161.6667
108.6  1219.1667
108.5  1356.6667
108.4  1424.1667
108.3  1557.5
108.2  1635.4167
108.1  1765.8333
108  1829.1667
107.9  1881.6667
107.8  1937.9167
107.7  1993.75
107.6  1999.1667
107.5  2007.9167
107.4  2014.1667
107.3  1987.9167
107.2  1925
107.1  1849.1667
107  1788.75
106.9  1745
106.8  1614.1667
106.7  1546.6667
106.6  1418.3333
106.5  1322.9167
106.4  1173.75
106.3  1102.0833
106.2  1027.9167
106.1  951.66667
106  880.83333
105.9  812.91667
105.8  758.33333
105.7  694.58333
105.6  666.25
105.5  601.25
105.4  581.66667
105.3  550.41667
105.2  528.33333
105.1  514.16667
105  490.83333
104.9  462.08333
104.8  454.58333
104.7  437.08333
104.6  446.66667
104.5  457.5
104.4  434.58333
104.3  422.91667
104.2  418.33333
104.1  403.33333
104  399.16667
103.9  408.33333
103.8  390.41667
103.7  394.16667
103.6  422.5
103.5  407.91667
103.4  408.33333
103.3  397.91667
103.2  374.58333
103.1  392.5
103  370.41667
102.9  393.33333
102.8  370
102.7  378.75
102.6  392.5
102.5  372.08333
102.4  385.41667
102.3  386.66667
102.2  374.58333
102.1  392.5
102  382.91667
101.9  365.83333
101.8  397.91667
101.7  386.25
101.6  386.66667
101.5  364.58333
101.4  376.66667
101.3  396.66667
101.2  387.5
101.1  374.58333
101  353.33333
100.9  390
100.8  366.25
100.7  372.08333
100.6  361.66667
100.5  375.41667
100.4  399.16667
100.3  371.25
100.2  362.91667
100.1  365
100  383.33333
99.9  366.66667
99.8  377.91667
99.7  366.66667
99.6  383.33333
99.5  377.08333
99.4  384.58333
99.3  389.16667
99.2  396.25
99.1  396.25
99  399.16667
98.9  436.25
98.8  437.91667
98.7  417.91667
98.6  472.5
98.5  452.91667
98.4  470.83333
98.3  445
98.2  447.08333
98.1  469.16667
98  471.25

# Region:            N1s
# Acquisition Date:  12/22/21 10:11:16 UTC
# Analysis Method:   XPS
# Analyzer:          Phoibos 100 R6
# Analyzer Lens:     LargeArea:1.5kV
# Analyzer Slit:     1:0.2x20\B:open
# Scan Mode:         FixedAnalyzerTransmission
# Curves/Scan:       1
# Values/Curve:      131
# Dwell Time:        0.8
# Excitation Energy: 1486.61
# Binding Energy:    408
# Pass Energy:       30
# Bias Voltage:      90
# Detector Voltage:  2600
# Eff. Workfunction: 4.309
# Source:            X-Ray Dummy
# Comment:           
#
# Cycle: 0
# Number of Scans: 3
#
# Cycle: 0, Curve: 0
# Acquisition Date: 12/22/21 10:11:16 UTC
#
# ColumnLabels: energy counts/s
#
408  792.08333
407.9  717.5
407.8  762.08333
407.7  720.83333
407.6  749.16667
407.5  725
407.4  715.41667
407.3  731.66667
407.2  743.75
407.1  751.66667
407  750
406.9  765.83333
406.8  703.33333
406.7  754.16667
406.6  723.33333
406.5  734.16667
406.4  730.83333
406.3  738.75
406.2  754.58333
406.1  722.5
406  745
405.9  732.08333
405.8  735
405.7  747.5
405.6  756.66667
405.5  739.58333
405.4  744.58333
405.3  734.58333
405.2  763.33333
405.1  752.08333
405  729.16667
404.9  750.41667
404.8  763.33333
404.7  718.33333
404.6  773.75
404.5  759.16667
404.4  740.83333
404.3  710.41667
404.2  760.41667
404.1  727.08333
404  801.66667
403.9  734.16667
403.8  740.41667
403.7  775
403.6  752.5
403.5  777.91667
403.4  776.25
403.3  785.41667
403.2  745.83333
403.1  735.83333
403  758.75
402.9  768.75
402.8  762.91667
402.7  781.66667
402.6  752.08333
402.5  767.08333
402.4  763.33333
402.3  762.5
402.2  777.91667
402.1  781.66667
402  768.33333
401.9  789.16667
401.8  765
401.7  743.33333
401.6  787.5
401.5  758.75
401.4  763.33333
401.3  747.08333
401.2  764.58333
401.1  754.16667
401  746.25
400.9  738.75
400.8  754.58333
400.7  730
400.6  761.66667
400.5  722.5
400.4  728.33333
400.3  757.5
400.2  728.75
400.1  756.66667
400  775.41667
399.9  730
399.8  721.25
399.7  735
399.6  770.83333
399.5  748.75
399.4  757.08333
399.3  754.58333
399.2  752.5
399.1  767.91667
399  768.75
398.9  754.58333
398.8  730.83333
398.7  756.66667
398.6  747.5
398.5  718.75
398.4  710.83333
398.3  781.66667
398.2  762.08333
398.1  750.83333
398  712.08333
397.9  720
397.8  742.91667
397.7  719.58333
397.6  730
397.5  715
397.4  750
397.3  747.08333
397.2  735.83333
397.1  740.83333
397  698.75
396.9  726.25
396.8  739.16667
396.7  758.75
396.6  722.5
396.5  707.91667
396.4  720.41667
396.3  688.33333
396.2  744.58333
396.1  709.16667
396  715.41667
395.9  710.41667
395.8  722.91667
395.7  705
395.6  739.16667
395.5  730.41667
395.4  725
395.3  757.5
395.2  702.5
395.1  710.41667
395  690

# Region:            O1s
# Acquisition Date:  12/22/21 10:05:48 UTC
# Analysis Method:   XPS
# Analyzer:          Phoibos 100 R6
# Analyzer Lens:     LargeArea:1.5kV
# Analyzer Slit:     1:0.2x20\B:open
# Scan Mode:         FixedAnalyzerTransmission
# Curves/Scan:       1
# Values/Curve:      171
# Dwell Time:        0.8
# Excitation Energy: 1486.61
# Binding Energy:    545
# Pass Energy:       30
# Bias Voltage:      90
# Detector Voltage:  2600
# Eff. Workfunction: 4.309
# Source:            X-Ray Dummy
# Comment:           
#
# Cycle: 0
# Number of Scans: 2
#
# Cycle: 0, Curve: 0
# Acquisition Date: 12/22/21 10:05:48 UTC
#
# ColumnLabels: energy counts/s
#
545  1236.25
544.9  1186.25
544.8  1220
544.7  1236.25
544.6  1213.75
544.5  1196.875
544.4  1191.875
544.3  1156.875
544.2  1184.375
544.1  1187.5
544  1183.125
543.9  1180.625
543.8  1211.25
543.7  1141.875
543.6  1193.75
543.5  1201.25
543.4  1175
543.3  1149.375
543.2  1139.375
543.1  1200
543  1231.25
542.9  1179.375
542.8  1186.875
542.7  1153.125
542.6  1110.625
542.5  1156.875
542.4  1165.625
542.3  1171.875
542.2  1196.875
542.1  1210
542  1212.5
541.9  1184.375
541.8  1214.375
541.7  1240
541.6  1177.5
541.5  1236.25
541.4  1258.125
541.3  1287.5
541.2  1260
541.1  1305
541  1303.75
540.9  1325.625
540.8  1268.125
540.7  1402.5
540.6  1385
540.5  1321.25
540.4  1401.875
540.3  1413.75
540.2  1439.375
540.1  1513.125
540  1461.25
539.9  1554.375
539.8  1531.875
539.7  1648.75
539.6  1640
539.5  1744.375
539.4  1848.75
539.3  1929.375
539.2  2033.125
539.1  2128.75
539  2381.875
538.9  2508.75
538.8  2697.5
538.7  2996.25
538.6  3250.625
538.5  3755.625
538.4  3996.25
538.3  4469.375
538.2  5106.875
538.1  5608.75
538  6208.125
537.9  6801.875
537.8  7542.5
537.7  8163.75
537.6  8794.375
537.5  9662.5
537.4  10221.25
537.3  10670.625
537.2  11268.125
537.1  11614.375
537  11961.25
536.9  11985.625
536.8  12120.625
536.7  12066.25
536.6  11754.375
536.5  11428.75
536.4  10902.5
536.3  10268.75
536.2  9593.125
536.1  8996.25
536  8143.125
535.9  7517.5
535.8  6779.375
535.7  5982.5
535.6  5511.25
535.5  4870.625
535.4  4408.75
535.3  3912.5
535.2  3483.125
535.1  3080
535  2785
534.9  2539.375
534.8  2345.625
534.7  2152.5
534.6  1967.5
534.5  1822.5
534.4  1807.5
534.3  1694.375
534.2  1520
534.1  1467.5
534  1504.375
533.9  1400.625
533.8  1376.875
533.7  1378.75
533.6  1328.125
533.5  1272.5
533.4  1216.25
533.3  1184.375
533.2  1210
533.1  1116.25
533  1191.25
532.9  1163.125
532.8  1165
532.7  1091.875
532.6  1160.625
532.5  1126.25
532.4  1147.5
532.3  1108.75
532.2  1126.875
532.1  1158.125
532  1066.875
531.9  1083.125
531.8  1078.125
531.7  1115.625
531.6  1062.5
531.5  1070
531.4  1065.625
531.3  1082.5
531.2  1095.625
531.1  1096.25
531  1077.5
530.9  1064.375
530.8  1070
530.7  1074.375
530.6  1060
530.5  1030
530.4  1043.75
530.3  1010
530.2  1032.5
530.1  1011.25
530  1022.5
529.9  1045
529.8  1036.875
529.7  1032.5
529.6  1043.125
529.5  1025.625
529.4  1007.5
529.3  1019.375
529.2  1020
529.1  1087.5
529  1106.875
528.9  1095.625
528.8  1126.25
528.7  1121.25
528.6  1183.75
528.5  1202.5
528.4  1232.5
528.3  1250
528.2  1270.625
528.1  1317.5
528  1415

# Region:            overview
# Acquisition Date:  12/22/21 09:58:00 UTC
# Analysis Method:   XPS
# Analyzer:          Phoibos 100 R6
# Analyzer Lens:     LargeArea:1.5kV
# Analyzer Slit:     1:0.2x20\B:open
# Scan Mode:         FixedAnalyzerTransmission
# Curves/Scan:       1
# Values/Curve:      1205
# Dwell Time:        0.2
# Excitation Energy: 1486.61
# Binding Energy:    1200
# Pass Energy:       50
# Bias Voltage:      90
# Detector Voltage:  2600
# Eff. Workfunction: 4.309
# Source:            X-Ray Dummy
# Comment:           
#
# Cycle: 0
# Number of Scans: 1
#
# Cycle: 0, Curve: 0
# Acquisition Date: 12/22/21 09:58:00 UTC
#
# ColumnLabels: energy counts/s
#
1200  8540
1199  9215
1198  9060
1197  8850
1196  8545
1195  8720
1194  8900
1193  8670
1192  8670
1191  8700
1190  8615
1189  8375
1188  8750
1187  8565
1186  9220
1185  8970
1184  8540
1183  8530
1182  8395
1181  8975
1180  8525
1179  8835
1178  8700
1177  8635
1176  8895
1175  8500
1174  8555
1173  8785
1172  8920
1171  8400
1170  8535
1169  8505
1168  8695
1167  8410
1166  8545
1165  8885
1164  8970
1163  8790
1162  8690
1161  8705
1160  8805
1159  8965
1158  8605
1157  8655
1156  8820
1155  8560
1154  8520
1153  8710
1152  8520
1151  9120
1150  9000
1149  8760
1148  8810
1147  8360
1146  8440
1145  8525
1144  8310
1143  8695
1142  8775
1141  8845
1140  8570
1139  8215
1138  8430
1137  8555
1136  8490
1135  8310
1134  8405
1133  8440
1132  8290
1131  8585
1130  8760
1129  8495
1128  8395
1127  8625
1126  8455
1125  8075
1124  8515
1123  8595
1122  8625
1121  8640
1120  8320
1119  8350
1118  8595
1117  8390
1116  8515
1115  8100
1114  8560
1113  8095
1112  8210
1111  8855
1110  8460
1109  8795
1108  8695
1107  8730
1106  8310
1105  8440
1104  8660
1103  8840
1102  8450
1101  8585
1100  8470
1099  8230
1098  8590
1097  8795
1096  8535
1095  8330
1094  8355
1093  8065
1092  8430
1091  8180
1090  8445
1089  8585
1088  8400
1087  8360
1086  8250
1085  8695
1084  8725
1083  8165
1082  8620
1081  8320
1080  8595
1079  8365
1078  8960
1077  8780
1076  8305
1075  8275
1074  8580
1073  8685
1072  8650
1071  8755
1070  8305
1069  8210
1068  8755
1067  8755
1066  8210
1065  8605
1064  8495
1063  8520
1062  8275
1061  8765
1060  9085
1059  8410
1058  8690
1057  8515
1056  8345
1055  8405
1054  8565
1053  8825
1052  8890
1051  8280
1050  8420
1049  8650
1048  8625
1047  8625
1046  8885
1045  8910
1044  8755
1043  8660
1042  8650
1041  9215
1040  8760
1039  8685
1038  8490
1037  8650
1036  8750
1035  8430
1034  8390
1033  8605
1032  9090
1031  8690
1030  8870
1029  8835
1028  8805
1027  8985
1026  9115
1025  9120
1024  9175
1023  9240
1022  9450
1021  9245
1020  9700
1019  9460
1018  9040
1017  8920
1016  8820
1015  8945
1014  8720
1013  8975
1012  9195
1011  9415
1010  9505
1009  9540
1008  9950
1007  9910
1006  10125
1005  10120
1004  9760
1003  9585
1002  8830
1001  9080
1000  9085
999  8565
998  8600
997  8120
996  8500
995  8985
994  8585
993  8535
992  8850
991  8695
990  9185
989  9475
988  10115
987  10840
986  11135
985  11915
984  12435
983  11790
982  11110
981  9705
980  9150
979  8905
978  8165
977  7660
976  7775
975  7250
974  7215
973  6470
972  6440
971  6195
970  6330
969  5960
968  6155
967  5775
966  6140
965  5820
964  6365
963  5890
962  5695
961  5760
960  6115
959  5970
958  6130
957  5670
956  6015
955  5845
954  6075
953  5725
952  5655
951  5925
950  6030
949  5805
948  5970
947  5635
946  6030
945  5865
944  5935
943  5805
942  6040
941  6020
940  5765
939  6125
938  5680
937  5425
936  5785
935  5735
934  5990
933  6165
932  6030
931  5760
930  5980
929  5880
928  5965
927  5810
926  5910
925  6075
924  5735
923  6290
922  6035
921  6035
920  5660
919  6000
918  5815
917  5990
916  5825
915  5800
914  5855
913  5800
912  5715
911  5920
910  6155
909  5825
908  6005
907  5775
906  6215
905  6100
904  5840
903  5850
902  5930
901  5500
900  5840
899  5805
898  5615
897  5865
896  6140
895  5855
894  5560
893  5825
892  6065
891  6015
890  5865
889  5785
888  6020
887  6055
886  6095
885  5900
884  5890
883  5960
882  6240
881  5775
880  5870
879  5850
878  5720
877  5780
876  5500
875  5725
874  5600
873  5415
872  5715
871  5610
870  5450
869  5905
868  5885
867  5655
866  5595
865  5630
864  5770
863  5980
862  5600
861  5900
860  5715
859  6035
858  5900
857  5915
856  5780
855  5635
854  6115
853  5850
852  5935
851  5725
850  5740
849  5900
848  5970
847  6055
846  5655
845  5825
844  5635
843  5955
842  5605
841  5995
840  5690
839  5870
838  5840
837  5995
836  5770
835  5850
834  6185
833  6170
832  6125
831  5860
830  5865
829  6075
828  5910
827  5670
826  5780
825  5960
824  6010
823  5875
822  5770
821  5980
820  5865
819  5835
818  5545
817  5665
816  5495
815  5745
814  5780
813  5665
812  5875
811  5740
810  5975
809  5770
808  5695
807  5660
806  5585
805  6050
804  6185
803  5790
802  5725
801  5680
800  5925
799  5720
798  5940
797  5865
796  5715
795  6110
794  5765
793  5740
792  6025
791  5945
790  6225
789  5450
788  5755
787  6085
786  6005
785  5705
784  5615
783  5660
782  6035
781  6070
780  6055
779  6150
778  5930
777  6080
776  5750
775  5820
774  6095
773  6035
772  5600
771  5845
770  6040
769  5970
768  6385
767  6025
766  5970
765  6270
764  5965
763  5870
762  5740
761  5960
760  5845
759  5985
758  5760
757  6180
756  5930
755  6195
754  5825
753  6185
752  5680
751  5565
750  5845
749  5685
748  6025
747  5860
746  5720
745  5670
744  5825
743  6005
742  6000
741  6135
740  5785
739  6005
738  5990
737  6105
736  5850
735  5925
734  6130
733  5735
732  6045
731  6025
730  6020
729  5985
728  6055
727  5915
726  6155
725  6075
724  6070
723  6325
722  6415
721  5910
720  6305
719  5980
718  6005
717  6055
716  6295
715  6380
714  6135
713  5990
712  6145
711  6350
710  6005
709  6135
708  5985
707  6100
706  6035
705  5740
704  5880
703  6160
702  5855
701  5975
700  6060
699  5930
698  6055
697  6090
696  5925
695  6110
694  5995
693  6060
692  5700
691  5810
690  6290
689  6065
688  6390
687  5950
686  5890
685  5915
684  6065
683  6170
682  6100
681  6110
680  6155
679  5990
678  6445
677  5835
676  6280
675  6155
674  6275
673  6325
672  6035
671  6490
670  6365
669  6090
668  6195
667  6090
666  6130
665  5875
664  6185
663  6170
662  6295
661  6305
660  6285
659  6055
658  6305
657  6530
656  6385
655  6265
654  6495
653  5950
652  6195
651  6215
650  6380
649  6185
648  6015
647  6225
646  6335
645  6390
644  6365
643  6570
642  6225
641  6315
640  6150
639  6390
638  6590
637  6435
636  6255
635  6350
634  6015
633  6655
632  6085
631  6240
630  6630
629  6460
628  6295
627  5965
626  6375
625  6510
624  5940
623  6235
622  6230
621  6695
620  6430
619  6410
618  6425
617  6210
616  6240
615  6475
614  6515
613  6145
612  6280
611  6765
610  6585
609  6465
608  6090
607  6575
606  6315
605  6385
604  6620
603  6410
602  6520
601  6690
600  6755
599  6575
598  6185
597  6705
596  6250
595  6730
594  6570
593  6340
592  6300
591  6875
590  6695
589  7065
588  6670
587  6385
586  6890
585  6550
584  6635
583  6305
582  6525
581  6400
580  6445
579  6640
578  6420
577  6600
576  6690
575  6370
574  6605
573  6275
572  6085
571  6395
570  6210
569  6465
568  6390
567  6795
566  6805
565  7020
564  7035
563  7195
562  7540
561  7555
560  7605
559  7310
558  6955
557  6770
556  6750
555  6390
554  5915
553  5940
552  5710
551  5665
550  5305
549  5005
548  4795
547  4540
546  4200
545  3800
544  3805
543  4160
542  4250
541  4370
540  5335
539  9720
538  20060
537  29025
536  22430
535  10085
534  4865
533  4155
532  3880
531  3500
530  3655
529  3860
528  4485
527  5205
526  5220
525  4415
524  3500
523  2940
522  3075
521  2960
520  2920
519  2770
518  2875
517  3060
516  3030
515  3255
514  2890
513  2765
512  2930
511  2710
510  2860
509  2945
508  3075
507  2880
506  2820
505  2945
504  2930
503  2760
502  2880
501  2450
500  2775
499  2800
498  2795
497  2710
496  2870
495  2735
494  2785
493  2760
492  2740
491  2730
490  2465
489  2690
488  2675
487  2575
486  2855
485  2810
484  2640
483  2745
482  2820
481  2730
480  2595
479  2555
478  2495
477  2640
