# Created by:        SpecsLab Prodigy, Version 4.60.2-r85849 
#
# XY-Serializer Export Settings:
#   Comment Prefix:           #
#   Output meta data:         yes
#   Energy Axis:              Binding Energy
#   Count Rate:               Counts per Second
#   Separate Scan Data:       no
#   Separate Channel Data:    no
#   External Channel Data:    yes
#   Transmission Function:    no
#   ErrorBar:                 no
#   Operation Results:        yes
#   Time Zone Format:         UTC
#
# Group:             Spectrum Group
#
# Region:            C1s
# Acquisition Date:  01/11/22 12:18:33 UTC
# Analysis Method:   XPS
# Analyzer:          Phoibos 100 R6
# Analyzer Lens:     LargeArea:1.5kV
# Analyzer Slit:     1:0.2x20\B:open
# Scan Mode:         FixedAnalyzerTransmission
# Curves/Scan:       1
# Values/Curve:      131
# Dwell Time:        0.8
# Excitation Energy: 1486.61
# Binding Energy:    295
# Pass Energy:       30
# Bias Voltage:      90
# Detector Voltage:  2600
# Eff. Workfunction: 4.309
# Source:            X-Ray Dummy
# Comment:           
#
# Cycle: 0
# Number of Scans: 18
#
# Cycle: 0, Curve: 0
# Acquisition Date: 01/11/22 12:18:33 UTC
#
# ColumnLabels: energy counts/s
#
295  773.26389
294.9  742.43056
294.8  739.30556
294.7  724.375
294.6  732.56944
294.5  744.79167
294.4  736.25
294.3  728.81944
294.2  743.26389
294.1  740
294  737.56944
293.9  736.66667
293.8  727.22222
293.7  740.27778
293.6  737.08333
293.5  760.55556
293.4  739.93056
293.3  741.25
293.2  717.36111
293.1  749.79167
293  751.18056
292.9  742.5
292.8  767.01389
292.7  746.73611
292.6  744.02778
292.5  756.52778
292.4  756.11111
292.3  754.93056
292.2  757.5
292.1  751.875
292  769.23611
291.9  763.61111
291.8  768.68056
291.7  766.59722
291.6  775.13889
291.5  780.625
291.4  772.01389
291.3  807.01389
291.2  808.88889
291.1  819.02778
291  824.44444
290.9  840.41667
290.8  841.38889
290.7  868.54167
290.6  894.65278
290.5  923.05556
290.4  956.66667
290.3  971.80556
290.2  991.18056
290.1  1024.5139
290  1077.1528
289.9  1102.0833
289.8  1135
289.7  1164.7917
289.6  1194.8611
289.5  1208.5417
289.4  1240.4167
289.3  1259.2361
289.2  1280.9722
289.1  1275
289  1300.1389
288.9  1327.5
288.8  1333.5417
288.7  1320.6944
288.6  1340.6944
288.5  1309.8611
288.4  1320.1389
288.3  1336.5278
288.2  1311.5278
288.1  1321.3889
288  1307.2222
287.9  1298.1944
287.8  1269.1667
287.7  1266.3194
287.6  1243.75
287.5  1223.3333
287.4  1220.625
287.3  1192.4306
287.2  1156.875
287.1  1123.1944
287  1084.9306
286.9  1058.2639
286.8  1029.5833
286.7  989.02778
286.6  963.47222
286.5  929.16667
286.4  887.91667
286.3  872.5
286.2  838.47222
286.1  828.40278
286  796.66667
285.9  788.33333
285.8  763.88889
285.7  763.68056
285.6  756.875
285.5  737.36111
285.4  739.44444
285.3  720.97222
285.2  723.19444
285.1  722.01389
285  716.38889
284.9  712.5
284.8  708.40278
284.7  712.5
284.6  702.63889
284.5  707.29167
284.4  687.36111
284.3  708.40278
284.2  697.08333
284.1  696.80556
284  703.47222
283.9  681.18056
283.8  696.66667
283.7  697.5
283.6  693.68056
283.5  690.55556
283.4  696.80556
283.3  700.83333
283.2  694.16667
283.1  703.81944
283  698.40278
282.9  691.66667
282.8  704.23611
282.7  702.22222
282.6  690.90278
282.5  686.45833
282.4  695.20833
282.3  709.58333
282.2  693.88889
282.1  703.95833
282  698.68056

# Region:            N1s
# Acquisition Date:  01/11/22 12:50:29 UTC
# Analysis Method:   XPS
# Analyzer:          Phoibos 100 R6
# Analyzer Lens:     LargeArea:1.5kV
# Analyzer Slit:     1:0.2x20\B:open
# Scan Mode:         FixedAnalyzerTransmission
# Curves/Scan:       1
# Values/Curve:      131
# Dwell Time:        0.8
# Excitation Energy: 1486.61
# Binding Energy:    408
# Pass Energy:       30
# Bias Voltage:      90
# Detector Voltage:  2600
# Eff. Workfunction: 4.309
# Source:            X-Ray Dummy
# Comment:           
#
# Cycle: 0
# Number of Scans: 35
#
# Cycle: 0, Curve: 0
# Acquisition Date: 01/11/22 12:50:29 UTC
#
# ColumnLabels: energy counts/s
#
408  739.46429
407.9  736.64286
407.8  738.28571
407.7  742.64286
407.6  753.32143
407.5  745.5
407.4  732.85714
407.3  742.96429
407.2  740.07143
407.1  744.71429
407  742.17857
406.9  733.35714
406.8  740.28571
406.7  729.53571
406.6  737.28571
406.5  741.03571
406.4  755.75
406.3  738.14286
406.2  742.67857
406.1  741.21429
406  736.96429
405.9  745.82143
405.8  747.28571
405.7  752.85714
405.6  751.14286
405.5  743.82143
405.4  761.82143
405.3  763.03571
405.2  749.92857
405.1  749.17857
405  756.5
404.9  762
404.8  763.03571
404.7  774.46429
404.6  773.14286
404.5  789.89286
404.4  786.64286
404.3  794.25
404.2  796.17857
404.1  808.25
404  805.10714
403.9  808.46429
403.8  822.07143
403.7  823.89286
403.6  826.75
403.5  824.35714
403.4  827.03571
403.3  826.03571
403.2  839.78571
403.1  834.35714
403  843.14286
402.9  847.10714
402.8  849.67857
402.7  837.64286
402.6  876.5
402.5  851
402.4  854
402.3  848.60714
402.2  853.71429
402.1  865.57143
402  841.71429
401.9  845.07143
401.8  852.71429
401.7  848.46429
401.6  834.32143
401.5  840.32143
401.4  842.21429
401.3  821.42857
401.2  813.35714
401.1  808.60714
401  802.96429
400.9  791
400.8  799.64286
400.7  785.42857
400.6  773.75
400.5  774.10714
400.4  766.14286
400.3  754.92857
400.2  765
400.1  752.39286
400  751
399.9  752
399.8  744.32143
399.7  743.60714
399.6  740.96429
399.5  736.85714
399.4  740.32143
399.3  742.96429
399.2  731.82143
399.1  730.60714
399  738.89286
398.9  743.21429
398.8  731.03571
398.7  736.92857
398.6  740.17857
398.5  733.64286
398.4  732.89286
398.3  738.96429
398.2  737.32143
398.1  740.60714
398  741.07143
397.9  730.96429
397.8  735.64286
397.7  734.25
397.6  733.46429
397.5  733.89286
397.4  730.35714
397.3  728.46429
397.2  732.71429
397.1  735.60714
397  722.64286
396.9  743.03571
396.8  734
396.7  737.46429
396.6  736.42857
396.5  730.10714
396.4  730.25
396.3  738.89286
396.2  730.39286
396.1  727.10714
396  739.17857
395.9  725.14286
395.8  732.07143
395.7  733.46429
395.6  737.28571
395.5  720.78571
395.4  731.92857
395.3  721.07143
395.2  723.96429
395.1  731
395  732.07143

# Region:            Si2p
# Acquisition Date:  01/11/22 11:59:01 UTC
# Analysis Method:   XPS
# Analyzer:          Phoibos 100 R6
# Analyzer Lens:     LargeArea:1.5kV
# Analyzer Slit:     1:0.2x20\B:open
# Scan Mode:         FixedAnalyzerTransmission
# Curves/Scan:       1
# Values/Curve:      141
# Dwell Time:        0.8
# Excitation Energy: 1486.61
# Binding Energy:    112
# Pass Energy:       30
# Bias Voltage:      90
# Detector Voltage:  2600
# Eff. Workfunction: 4.309
# Source:            X-Ray Dummy
# Comment:           
#
# Cycle: 0
# Number of Scans: 12
#
# Cycle: 0, Curve: 0
# Acquisition Date: 01/11/22 11:59:01 UTC
#
# ColumnLabels: energy counts/s
#
112  395.72917
111.9  390.9375
111.8  388.95833
111.7  423.64583
111.6  408.95833
111.5  413.02083
111.4  411.97917
111.3  402.29167
111.2  403.64583
111.1  400.9375
111  411.97917
110.9  396.77083
110.8  410.52083
110.7  411.5625
110.6  412.08333
110.5  407.8125
110.4  406.45833
110.3  414.375
110.2  410.3125
110.1  416.875
110  406.97917
109.9  418.64583
109.8  430.10417
109.7  414.47917
109.6  438.85417
109.5  425.41667
109.4  427.08333
109.3  443.02083
109.2  449.6875
109.1  448.125
109  460.10417
108.9  473.75
108.8  487.08333
108.7  508.54167
108.6  526.5625
108.5  548.02083
108.4  582.1875
108.3  620.83333
108.2  645.3125
108.1  693.85417
108  751.45833
107.9  800.41667
107.8  858.54167
107.7  917.5
107.6  991.77083
107.5  1072.1875
107.4  1136.9792
107.3  1201.875
107.2  1256.9792
107.1  1354.2708
107  1412.8125
106.9  1462.9167
106.8  1521.7708
106.7  1570
106.6  1579.375
106.5  1605.3125
106.4  1601.7708
106.3  1587.9167
106.2  1590.9375
106.1  1531.5625
106  1490.9375
105.9  1453.75
105.8  1363.3333
105.7  1310.1042
105.6  1224.375
105.5  1169.2708
105.4  1082.7083
105.3  1021.9792
105.2  943.75
105.1  885.10417
105  814.89583
104.9  765
104.8  721.5625
104.7  671.45833
104.6  631.97917
104.5  600
104.4  564.58333
104.3  535.9375
104.2  520.9375
104.1  492.70833
104  476.04167
103.9  464.0625
103.8  448.125
103.7  437.91667
103.6  430.20833
103.5  403.64583
103.4  430.52083
103.3  411.875
103.2  408.125
103.1  389.58333
103  384.58333
102.9  384.375
102.8  384.47917
102.7  389.16667
102.6  382.60417
102.5  379.375
102.4  387.8125
102.3  384.58333
102.2  379.47917
102.1  359.89583
102  379.16667
101.9  382.08333
101.8  372.39583
101.7  364.58333
101.6  383.85417
101.5  385.3125
101.4  371.77083
101.3  376.875
101.2  369.6875
101.1  371.875
101  374.58333
100.9  372.70833
100.8  371.35417
100.7  373.64583
100.6  359.47917
100.5  366.875
100.4  366.35417
100.3  362.39583
100.2  361.66667
100.1  377.39583
100  361.04167
99.9  377.60417
99.8  367.70833
99.7  364.47917
99.6  364.375
99.5  365.625
99.4  380.20833
99.3  373.95833
99.2  361.5625
99.1  369.58333
99  373.54167
98.9  361.97917
98.8  371.45833
98.7  368.85417
98.6  374.89583
98.5  367.70833
98.4  384.58333
98.3  378.125
98.2  395.625
98.1  387.39583
98  386.45833

# Region:            Ba3d
# Acquisition Date:  01/11/22 10:50:01 UTC
# Analysis Method:   XPS
# Analyzer:          Phoibos 100 R6
# Analyzer Lens:     LargeArea:1.5kV
# Analyzer Slit:     1:0.2x20\B:open
# Scan Mode:         FixedAnalyzerTransmission
# Curves/Scan:       1
# Values/Curve:      111
# Dwell Time:        0.8
# Excitation Energy: 1486.61
# Binding Energy:    786
# Pass Energy:       30
# Bias Voltage:      90
# Detector Voltage:  2600
# Eff. Workfunction: 4.309
# Source:            X-Ray Dummy
# Comment:           
#
# Cycle: 0
# Number of Scans: 1
#
# Cycle: 0, Curve: 0
# Acquisition Date: 01/11/22 10:50:01 UTC
#
# ColumnLabels: energy counts/s
#
786  2167.5
785.9  2181.25
785.8  2261.25
785.7  2240
785.6  2101.25
785.5  2275
785.4  2101.25
785.3  2133.75
785.2  2100
785.1  2140
785  2157.5
784.9  2123.75
784.8  2192.5
784.7  2121.25
784.6  2101.25
784.5  2077.5
784.4  2285
784.3  2198.75
784.2  2155
784.1  2221.25
784  2193.75
783.9  2201.25
783.8  2183.75
783.7  2151.25
783.6  2201.25
783.5  2160
783.4  2153.75
783.3  2110
783.2  2082.5
783.1  2193.75
783  2282.5
782.9  2240
782.8  2193.75
782.7  2165
782.6  2158.75
782.5  2171.25
782.4  2146.25
782.3  2016.25
782.2  2238.75
782.1  2138.75
782  2193.75
781.9  2200
781.8  2236.25
781.7  2208.75
781.6  2167.5
781.5  2106.25
781.4  2208.75
781.3  2111.25
781.2  2103.75
781.1  2212.5
781  2092.5
780.9  2233.75
780.8  2232.5
780.7  2143.75
780.6  2158.75
780.5  2113.75
780.4  2171.25
780.3  2148.75
780.2  2136.25
780.1  2240
780  2082.5
779.9  2081.25
779.8  2247.5
779.7  2288.75
779.6  2161.25
779.5  2105
779.4  2140
779.3  2121.25
779.2  2097.5
779.1  2160
779  2087.5
778.9  2182.5
778.8  2202.5
778.7  2095
778.6  2146.25
778.5  2191.25
778.4  2167.5
778.3  2141.25
778.2  2233.75
778.1  2198.75
778  2158.75
777.9  2298.75
777.8  2085
777.7  2222.5
777.6  2172.5
777.5  2193.75
777.4  2053.75
777.3  2107.5
777.2  2165
777.1  2091.25
777  2121.25
776.9  2168.75
776.8  2093.75
776.7  2181.25
776.6  2143.75
776.5  2092.5
776.4  2158.75
776.3  2141.25
776.2  2132.5
776.1  2197.5
776  2182.5
775.9  2178.75
775.8  2171.25
775.7  2091.25
775.6  2138.75
775.5  2183.75
775.4  2193.75
775.3  2141.25
775.2  2125
775.1  2165
775  2128.75

# Region:            O1s
# Acquisition Date:  01/11/22 11:04:22 UTC
# Analysis Method:   XPS
# Analyzer:          Phoibos 100 R6
# Analyzer Lens:     LargeArea:1.5kV
# Analyzer Slit:     1:0.2x20\B:open
# Scan Mode:         FixedAnalyzerTransmission
# Curves/Scan:       1
# Values/Curve:      171
# Dwell Time:        0.8
# Excitation Energy: 1486.61
# Binding Energy:    545
# Pass Energy:       30
# Bias Voltage:      90
# Detector Voltage:  2600
# Eff. Workfunction: 4.309
# Source:            X-Ray Dummy
# Comment:           
#
# Cycle: 0
# Number of Scans: 2
#
# Cycle: 0, Curve: 0
# Acquisition Date: 01/11/22 11:04:22 UTC
#
# ColumnLabels: energy counts/s
#
545  1300
544.9  1254.375
544.8  1285
544.7  1239.375
544.6  1249.375
544.5  1226.25
544.4  1230.625
544.3  1230
544.2  1210.625
544.1  1244.375
544  1203.125
543.9  1186.875
543.8  1203.125
543.7  1186.25
543.6  1222.5
543.5  1243.125
543.4  1136.25
543.3  1161.875
543.2  1200
543.1  1195.625
543  1171.875
542.9  1170.625
542.8  1177.5
542.7  1217.5
542.6  1193.125
542.5  1206.25
542.4  1164.375
542.3  1187.5
542.2  1188.75
542.1  1151.875
542  1173.125
541.9  1142.5
541.8  1161.875
541.7  1136.875
541.6  1221.875
541.5  1160
541.4  1153.75
541.3  1241.875
541.2  1158.125
541.1  1181.25
541  1146.25
540.9  1197.5
540.8  1195.625
540.7  1186.875
540.6  1211.875
540.5  1212.5
540.4  1226.25
540.3  1202.5
540.2  1235
540.1  1181.875
540  1315
539.9  1221.25
539.8  1246.875
539.7  1265
539.6  1270
539.5  1284.375
539.4  1314.375
539.3  1347.5
539.2  1355
539.1  1364.375
539  1376.875
538.9  1372.5
538.8  1456.875
538.7  1450
538.6  1516.25
538.5  1533.125
538.4  1551.875
538.3  1638.75
538.2  1668.125
538.1  1782.5
538  1952.5
537.9  2053.75
537.8  2158.125
537.7  2322.5
537.6  2548.125
537.5  2778.125
537.4  3063.75
537.3  3352.5
537.2  3656.25
537.1  4053.125
537  4516.875
536.9  4886.875
536.8  5360.625
536.7  5901.25
536.6  6358.75
536.5  6859.375
536.4  7483.75
536.3  7930.625
536.2  8193.125
536.1  8665
536  8801.875
535.9  9194.375
535.8  9260
535.7  9229.375
535.6  9086.25
535.5  8996.25
535.4  8736.25
535.3  8406.25
535.2  8033.125
535.1  7423.75
535  7011.875
534.9  6360
534.8  5892.5
534.7  5403.125
534.6  4855.625
534.5  4389.375
534.4  3995
534.3  3513.125
534.2  3165
534.1  2840
534  2536.25
533.9  2354.375
533.8  2182.5
533.7  1927.5
533.6  1866.875
533.5  1673.125
533.4  1603.125
533.3  1540
533.2  1463.75
533.1  1404.375
533  1376.875
532.9  1302.5
532.8  1248.75
532.7  1251.875
532.6  1220
532.5  1210
532.4  1178.125
532.3  1157.5
532.2  1131.875
532.1  1111.25
532  1078.125
531.9  1110.625
531.8  1064.375
531.7  1118.75
531.6  1056.875
531.5  1075
531.4  1043.75
531.3  1061.25
531.2  1051.25
531.1  1035.625
531  1076.875
530.9  1070
530.8  1001.25
530.7  1101.25
530.6  1020.625
530.5  1028.75
530.4  1020
530.3  1054.375
530.2  1018.75
530.1  1023.75
530  961.875
529.9  997.5
529.8  975.625
529.7  1009.375
529.6  983.125
529.5  988.75
529.4  1033.125
529.3  1023.125
529.2  1056.25
529.1  976.875
529  980.625
528.9  981.875
528.8  1000
528.7  975.625
528.6  974.375
528.5  968.125
528.4  991.875
528.3  983.125
528.2  990.625
528.1  987.5
528  1015.625

# Region:            overview
# Acquisition Date:  01/11/22 10:56:35 UTC
# Analysis Method:   XPS
# Analyzer:          Phoibos 100 R6
# Analyzer Lens:     LargeArea:1.5kV
# Analyzer Slit:     1:0.2x20\B:open
# Scan Mode:         FixedAnalyzerTransmission
# Curves/Scan:       1
# Values/Curve:      1205
# Dwell Time:        0.2
# Excitation Energy: 1486.61
# Binding Energy:    1200
# Pass Energy:       50
# Bias Voltage:      90
# Detector Voltage:  2600
# Eff. Workfunction: 4.309
# Source:            X-Ray Dummy
# Comment:           
#
# Cycle: 0
# Number of Scans: 1
#
# Cycle: 0, Curve: 0
# Acquisition Date: 01/11/22 10:56:35 UTC
#
# ColumnLabels: energy counts/s
#
1200  8890
1199  8840
1198  8575
1197  8675
1196  8395
1195  8365
1194  8410
1193  8395
1192  8660
1191  8580
1190  8585
1189  8495
1188  8615
1187  8060
1186  8445
1185  8720
1184  8375
1183  8285
1182  8470
1181  8295
1180  8695
1179  8580
1178  8305
1177  8435
1176  8215
1175  8480
1174  8510
1173  8120
1172  8140
1171  8795
1170  8625
1169  8650
1168  8570
1167  8470
1166  8715
1165  8515
1164  8540
1163  8965
1162  8385
1161  8295
1160  8740
1159  8840
1158  8045
1157  8300
1156  8380
1155  7990
1154  8200
1153  8040
1152  8435
1151  8010
1150  8440
1149  8585
1148  8200
1147  8260
1146  8310
1145  8440
1144  8610
1143  8490
1142  8525
1141  8330
1140  8505
1139  8190
1138  8415
1137  8665
1136  8240
1135  8170
1134  8910
1133  8355
1132  8225
1131  8400
1130  8265
1129  8095
1128  8295
1127  8075
1126  8645
1125  8510
1124  8000
1123  8260
1122  8355
1121  8180
1120  8145
1119  8605
1118  8045
1117  8540
1116  8130
1115  8460
1114  8580
1113  8745
1112  8215
1111  8280
1110  8200
1109  8450
1108  8405
1107  8220
1106  8235
1105  8305
1104  8055
1103  8365
1102  8450
1101  8270
1100  8195
1099  8070
1098  8275
1097  8365
1096  8535
1095  8545
1094  8450
1093  8335
1092  8435
1091  7860
1090  8565
1089  8475
1088  8275
1087  8000
1086  8655
1085  8200
1084  8255
1083  8645
1082  8250
1081  8455
1080  8175
1079  8270
1078  8585
1077  8140
1076  8350
1075  8600
1074  8765
1073  8485
1072  8380
1071  8575
1070  8280
1069  8305
1068  8425
1067  8630
1066  8125
1065  8520
1064  8150
1063  8425
1062  8545
1061  8440
1060  8615
1059  8620
1058  8705
1057  8580
1056  8125
1055  8335
1054  8280
1053  8575
1052  8330
1051  8475
1050  8425
1049  8695
1048  8505
1047  8650
1046  8490
1045  8215
1044  8440
1043  8370
1042  8540
1041  8330
1040  8705
1039  8395
1038  8610
1037  8340
1036  8060
1035  8280
1034  8060
1033  8540
1032  8580
1031  8575
1030  8285
1029  8570
1028  8765
1027  8695
1026  8970
1025  8430
1024  8580
1023  8740
1022  8615
1021  8660
1020  8700
1019  8755
1018  8950
1017  8775
1016  8345
1015  8500
1014  8875
1013  8335
1012  8775
1011  8345
1010  8670
1009  8845
1008  8395
1007  9145
1006  8735
1005  9085
1004  9305
1003  9270
1002  8900
1001  8885
1000  8610
999  8260
998  8720
997  7920
996  8100
995  8000
994  7660
993  7685
992  8185
991  7905
990  8000
989  8035
988  8255
987  8545
986  9080
985  9340
984  9460
983  9895
982  9540
981  9600
980  8340
979  8200
978  8345
977  7625
976  7600
975  7235
974  7145
973  6375
972  6740
971  6495
970  6105
969  6250
968  5780
967  5925
966  5780
965  5880
964  5780
963  5725
962  5700
961  5885
960  5725
959  5915
958  5820
957  5670
956  5780
955  5820
954  5805
953  5825
952  6190
951  5880
950  5820
949  5795
948  6425
947  6030
946  5800
945  5780
944  5730
943  5770
942  5810
941  5760
940  5790
939  5935
938  5935
937  5710
936  5880
935  5370
934  5965
933  5920
932  5645
931  6005
930  5755
929  6200
928  5750
927  5850
926  5835
925  6095
924  5925
923  5875
922  5705
921  5855
920  5770
919  5685
918  5615
917  5835
916  5985
915  6090
914  5840
913  5770
912  5930
911  5920
910  6070
909  6105
908  5975
907  6020
906  5935
905  5995
904  5950
903  6010
902  5920
901  5720
900  5790
899  5790
898  5915
897  6195
896  5840
895  5545
894  6020
893  5780
892  5985
891  5950
890  5825
889  5960
888  6100
887  5870
886  5685
885  5840
884  6050
883  5460
882  5890
881  5865
880  5555
879  5950
878  5660
877  5790
876  5855
875  5465
874  5760
873  6110
872  5610
871  6065
870  5970
869  5570
868  5875
867  5535
866  5620
865  5655
864  5895
863  5760
862  5940
861  6135
860  5680
859  5895
858  5920
857  5975
856  5580
855  5430
854  5855
853  5725
852  5685
851  6080
850  5875
849  5815
848  5575
847  5610
846  5560
845  5560
844  5820
843  5695
842  6010
841  5805
840  5950
839  5850
838  5905
837  5700
836  6210
835  5765
834  5695
833  5890
832  5745
831  5425
830  6145
829  6095
828  6005
827  6100
826  5800
825  5810
824  5810
823  5960
822  5735
821  5980
820  5650
819  5850
818  5655
817  5655
816  5550
815  5770
814  5875
813  5715
812  5570
811  5780
810  5850
809  5760
808  5590
807  5555
806  5770
805  5835
804  5855
803  5720
802  5620
801  6105
800  5865
799  5780
798  5830
797  5980
796  5980
795  5795
794  5935
793  5935
792  5460
791  5675
790  6110
789  5950
788  6065
787  5825
786  5765
785  6005
784  5875
783  5535
782  5955
781  6025
780  5895
779  5765
778  5485
777  5830
776  6180
775  5965
774  5925
773  5695
772  6085
771  5760
770  5855
769  5815
768  5815
767  5785
766  5890
765  5805
764  6255
763  5825
762  5940
761  5730
760  5880
759  5600
758  5860
757  5955
756  5920
755  5960
754  5550
753  6055
752  6435
751  6050
750  5775
749  6130
748  6365
747  6040
746  5980
745  5860
744  6025
743  5885
742  5730
741  5975
740  5870
739  5655
738  6120
737  5980
736  5940
735  5665
