# Created by:        SpecsLab Prodigy, Version 4.60.2-r85849 
#
# XY-Serializer Export Settings:
#   Comment Prefix:           #
#   Output meta data:         yes
#   Energy Axis:              Binding Energy
#   Count Rate:               Counts per Second
#   Separate Scan Data:       no
#   Separate Channel Data:    no
#   External Channel Data:    yes
#   Transmission Function:    no
#   ErrorBar:                 no
#   Operation Results:        yes
#   Time Zone Format:         UTC
#
# Group:             Spectrum Group
#
# Region:            C1s
# Acquisition Date:  01/11/22 09:53:05 UTC
# Analysis Method:   XPS
# Analyzer:          Phoibos 100 R6
# Analyzer Lens:     LargeArea:1.5kV
# Analyzer Slit:     1:0.2x20\B:open
# Scan Mode:         FixedAnalyzerTransmission
# Curves/Scan:       1
# Values/Curve:      131
# Dwell Time:        0.8
# Excitation Energy: 1486.61
# Binding Energy:    295
# Pass Energy:       30
# Bias Voltage:      90
# Detector Voltage:  2600
# Eff. Workfunction: 4.309
# Source:            X-Ray Dummy
# Comment:           
#
# Cycle: 0
# Number of Scans: 2
#
# Cycle: 0, Curve: 0
# Acquisition Date: 01/11/22 09:53:05 UTC
#
# ColumnLabels: energy counts/s
#
295  679.375
294.9  661.875
294.8  686.25
294.7  693.75
294.6  665
294.5  676.25
294.4  684.375
294.3  690
294.2  679.375
294.1  698.75
294  671.875
293.9  711.875
293.8  714.375
293.7  673.125
293.6  661.875
293.5  700.625
293.4  668.125
293.3  675.625
293.2  691.875
293.1  695.625
293  693.125
292.9  708.125
292.8  661.875
292.7  655
292.6  713.125
292.5  662.5
292.4  706.25
292.3  657.5
292.2  735
292.1  625
292  649.375
291.9  694.375
291.8  716.875
291.7  689.375
291.6  728.125
291.5  669.375
291.4  673.75
291.3  675
291.2  697.5
291.1  702.5
291  691.25
290.9  714.375
290.8  693.125
290.7  674.375
290.6  681.25
290.5  686.25
290.4  681.25
290.3  705.625
290.2  721.875
290.1  718.125
290  726.25
289.9  707.5
289.8  699.375
289.7  711.875
289.6  726.25
289.5  731.875
289.4  719.375
289.3  715
289.2  744.375
289.1  712.5
289  720.625
288.9  766.875
288.8  661.875
288.7  724.375
288.6  741.875
288.5  750.625
288.4  750.625
288.3  791.25
288.2  699.375
288.1  695
288  705
287.9  699.375
287.8  688.75
287.7  701.25
287.6  736.875
287.5  725.625
287.4  681.875
287.3  716.875
287.2  697.5
287.1  700
287  644.375
286.9  677.5
286.8  668.125
286.7  686.875
286.6  675
286.5  643.75
286.4  687.5
286.3  647.5
286.2  698.125
286.1  720.625
286  665.625
285.9  677.5
285.8  713.75
285.7  708.125
285.6  701.25
285.5  634.375
285.4  651.25
285.3  706.25
285.2  698.125
285.1  652.5
285  673.75
284.9  715.625
284.8  713.75
284.7  678.75
284.6  671.875
284.5  721.25
284.4  677.5
284.3  692.5
284.2  678.125
284.1  703.125
284  696.875
283.9  698.125
283.8  699.375
283.7  725.625
283.6  680.625
283.5  710
283.4  689.375
283.3  692.5
283.2  714.375
283.1  728.75
283  718.125
282.9  734.375
282.8  669.375
282.7  681.25
282.6  709.375
282.5  700
282.4  720.625
282.3  703.125
282.2  654.375
282.1  691.875
282  707.5

# Region:            N1s
# Acquisition Date:  01/11/22 09:54:52 UTC
# Analysis Method:   XPS
# Analyzer:          Phoibos 100 R6
# Analyzer Lens:     LargeArea:1.5kV
# Analyzer Slit:     1:0.2x20\B:open
# Scan Mode:         FixedAnalyzerTransmission
# Curves/Scan:       1
# Values/Curve:      131
# Dwell Time:        0.8
# Excitation Energy: 1486.61
# Binding Energy:    408
# Pass Energy:       30
# Bias Voltage:      90
# Detector Voltage:  2600
# Eff. Workfunction: 4.309
# Source:            X-Ray Dummy
# Comment:           
#
# Cycle: 0
# Number of Scans: 2
#
# Cycle: 0, Curve: 0
# Acquisition Date: 01/11/22 09:54:52 UTC
#
# ColumnLabels: energy counts/s
#
408  757.5
407.9  719.375
407.8  727.5
407.7  730
407.6  745.625
407.5  738.125
407.4  743.75
407.3  716.25
407.2  717.5
407.1  731.25
407  755
406.9  717.5
406.8  730
406.7  743.125
406.6  732.5
406.5  719.375
406.4  719.375
406.3  707.5
406.2  747.5
406.1  756.875
406  756.25
405.9  748.75
405.8  715
405.7  723.75
405.6  741.875
405.5  765
405.4  691.25
405.3  721.875
405.2  717.5
405.1  762.5
405  731.25
404.9  748.125
404.8  725.625
404.7  763.75
404.6  745.625
404.5  740.625
404.4  740.625
404.3  779.375
404.2  695
404.1  746.875
404  705.625
403.9  802.5
403.8  764.375
403.7  713.125
403.6  740
403.5  759.375
403.4  750.625
403.3  743.125
403.2  726.875
403.1  741.25
403  770.625
402.9  748.75
402.8  748.75
402.7  723.125
402.6  744.375
402.5  747.5
402.4  771.25
402.3  760
402.2  742.5
402.1  800
402  730.625
401.9  761.25
401.8  757.5
401.7  749.375
401.6  798.125
401.5  808.125
401.4  792.5
401.3  743.75
401.2  740.625
401.1  750
401  726.875
400.9  758.75
400.8  756.25
400.7  758.125
400.6  763.75
400.5  760
400.4  706.25
400.3  748.125
400.2  711.25
400.1  760
400  741.875
399.9  709.375
399.8  736.875
399.7  788.75
399.6  768.125
399.5  679.375
399.4  734.375
399.3  735
399.2  766.25
399.1  761.25
399  760
398.9  727.5
398.8  726.875
398.7  768.75
398.6  724.375
398.5  748.125
398.4  758.75
398.3  716.25
398.2  727.5
398.1  733.125
398  728.125
397.9  736.875
397.8  748.75
397.7  771.875
397.6  751.875
397.5  725.625
397.4  726.25
397.3  754.375
397.2  703.125
397.1  711.25
397  743.75
396.9  731.875
396.8  727.5
396.7  702.5
396.6  751.25
396.5  740.625
396.4  727.5
396.3  771.875
396.2  726.875
396.1  731.875
396  785
395.9  748.125
395.8  727.5
395.7  706.25
395.6  734.375
395.5  719.375
395.4  733.75
395.3  711.875
395.2  734.375
395.1  727.5
395  745

# Region:            Si2p
# Acquisition Date:  01/11/22 09:56:47 UTC
# Analysis Method:   XPS
# Analyzer:          Phoibos 100 R6
# Analyzer Lens:     LargeArea:1.5kV
# Analyzer Slit:     1:0.2x20\B:open
# Scan Mode:         FixedAnalyzerTransmission
# Curves/Scan:       1
# Values/Curve:      141
# Dwell Time:        0.8
# Excitation Energy: 1486.61
# Binding Energy:    112
# Pass Energy:       30
# Bias Voltage:      90
# Detector Voltage:  2600
# Eff. Workfunction: 4.309
# Source:            X-Ray Dummy
# Comment:           
#
# Cycle: 0
# Number of Scans: 2
#
# Cycle: 0, Curve: 0
# Acquisition Date: 01/11/22 09:56:47 UTC
#
# ColumnLabels: energy counts/s
#
112  427.5
111.9  406.875
111.8  430
111.7  418.125
111.6  378.125
111.5  440.625
111.4  394.375
111.3  411.25
111.2  431.25
111.1  441.875
111  433.125
110.9  432.5
110.8  432.5
110.7  451.25
110.6  448.125
110.5  481.25
110.4  534.375
110.3  546.875
110.2  543.75
110.1  516.25
110  555.625
109.9  619.375
109.8  653.75
109.7  683.125
109.6  694.375
109.5  783.125
109.4  841.25
109.3  878.75
109.2  1005
109.1  1008.75
109  1143.125
108.9  1223.125
108.8  1335.625
108.7  1471.875
108.6  1560.625
108.5  1648.125
108.4  1692.5
108.3  1788.75
108.2  1836.25
108.1  1971.875
108  1904.375
107.9  2000.625
107.8  1977.5
107.7  1941.875
107.6  2014.375
107.5  1924.375
107.4  1880
107.3  1756.875
107.2  1706.25
107.1  1678.125
107  1513.75
106.9  1482.5
106.8  1353.75
106.7  1191.25
106.6  1156.25
106.5  1038.75
106.4  1000.625
106.3  943.125
106.2  801.25
106.1  753.75
106  693.75
105.9  687.5
105.8  611.875
105.7  623.75
105.6  575.625
105.5  544.375
105.4  520
105.3  491.875
105.2  476.25
105.1  475.625
105  449.375
104.9  458.75
104.8  420.625
104.7  425.625
104.6  428.125
104.5  430.625
104.4  404.375
104.3  543.75
104.2  410
104.1  421.875
104  385.625
103.9  389.375
103.8  395
103.7  384.375
103.6  371.875
103.5  405
103.4  380
103.3  395
103.2  407.5
103.1  378.75
103  390
102.9  396.25
102.8  370
102.7  406.25
102.6  375.625
102.5  377.5
102.4  367.5
102.3  400
102.2  394.375
102.1  374.375
102  366.25
101.9  369.375
101.8  398.125
101.7  417.5
101.6  411.875
101.5  376.875
101.4  388.75
101.3  408.75
101.2  344.375
101.1  375
101  386.25
100.9  373.75
100.8  388.125
100.7  368.125
100.6  396.25
100.5  390.625
100.4  348.125
100.3  380.625
100.2  378.75
100.1  381.875
100  386.875
99.9  403.125
99.8  385.625
99.7  406.875
99.6  423.75
99.5  417.5
99.4  366.25
99.3  422.5
99.2  433.75
99.1  437.5
99  467.5
98.9  400.625
98.8  435.625
98.7  440.625
98.6  440.625
98.5  453.125
98.4  472.5
98.3  480.625
98.2  455
98.1  451.875
98  488.75

# Region:            Ba3d
# Acquisition Date:  01/11/22 09:44:44 UTC
# Analysis Method:   XPS
# Analyzer:          Phoibos 100 R6
# Analyzer Lens:     LargeArea:1.5kV
# Analyzer Slit:     1:0.2x20\B:open
# Scan Mode:         FixedAnalyzerTransmission
# Curves/Scan:       1
# Values/Curve:      111
# Dwell Time:        0.8
# Excitation Energy: 1486.61
# Binding Energy:    786
# Pass Energy:       30
# Bias Voltage:      90
# Detector Voltage:  2600
# Eff. Workfunction: 4.309
# Source:            X-Ray Dummy
# Comment:           
#
# Cycle: 0
# Number of Scans: 1
#
# Cycle: 0, Curve: 0
# Acquisition Date: 01/11/22 09:44:44 UTC
#
# ColumnLabels: energy counts/s
#
786  2240
785.9  2235
785.8  2145
785.7  2096.25
785.6  2085
785.5  2167.5
785.4  2125
785.3  2151.25
785.2  2271.25
785.1  2116.25
785  2130
784.9  2163.75
784.8  2112.5
784.7  2186.25
784.6  2252.5
784.5  2165
784.4  2251.25
784.3  2215
784.2  2160
784.1  2232.5
784  2195
783.9  2243.75
783.8  2161.25
783.7  2242.5
783.6  2210
783.5  2206.25
783.4  2186.25
783.3  2146.25
783.2  2142.5
783.1  2175
783  2283.75
782.9  2168.75
782.8  2223.75
782.7  2126.25
782.6  2147.5
782.5  2147.5
782.4  2311.25
782.3  2202.5
782.2  2207.5
782.1  2278.75
782  2158.75
781.9  2148.75
781.8  2178.75
781.7  2146.25
781.6  2185
781.5  2210
781.4  2280
781.3  2091.25
781.2  2110
781.1  2227.5
781  2245
780.9  2066.25
780.8  2298.75
780.7  2202.5
780.6  2177.5
780.5  2133.75
780.4  2223.75
780.3  2206.25
780.2  2182.5
780.1  2256.25
780  2210
779.9  2112.5
779.8  2117.5
779.7  2186.25
779.6  2132.5
779.5  2148.75
779.4  2250
779.3  2150
779.2  2137.5
779.1  2156.25
779  2148.75
778.9  2135
778.8  2137.5
778.7  2215
778.6  2183.75
778.5  2142.5
778.4  2107.5
778.3  2131.25
778.2  2151.25
778.1  2212.5
778  2122.5
777.9  2146.25
777.8  2135
777.7  2235
777.6  2160
777.5  2175
777.4  2087.5
777.3  2132.5
777.2  2187.5
777.1  2206.25
777  2228.75
776.9  2122.5
776.8  2176.25
776.7  2073.75
776.6  2245
776.5  2273.75
776.4  2177.5
776.3  2136.25
776.2  2177.5
776.1  2147.5
776  2262.5
775.9  2240
775.8  2182.5
775.7  2147.5
775.6  2205
775.5  2162.5
775.4  2105
775.3  2091.25
775.2  2048.75
775.1  2181.25
775  2115

# Region:            O1s
# Acquisition Date:  01/11/22 09:47:03 UTC
# Analysis Method:   XPS
# Analyzer:          Phoibos 100 R6
# Analyzer Lens:     LargeArea:1.5kV
# Analyzer Slit:     1:0.2x20\B:open
# Scan Mode:         FixedAnalyzerTransmission
# Curves/Scan:       1
# Values/Curve:      171
# Dwell Time:        0.8
# Excitation Energy: 1486.61
# Binding Energy:    545
# Pass Energy:       30
# Bias Voltage:      90
# Detector Voltage:  2600
# Eff. Workfunction: 4.309
# Source:            X-Ray Dummy
# Comment:           
#
# Cycle: 0
# Number of Scans: 1
#
# Cycle: 0, Curve: 0
# Acquisition Date: 01/11/22 09:47:03 UTC
#
# ColumnLabels: energy counts/s
#
545  1186.25
544.9  1200
544.8  1225
544.7  1198.75
544.6  1253.75
544.5  1162.5
544.4  1176.25
544.3  1260
544.2  1212.5
544.1  1200
544  1175
543.9  1200
543.8  1196.25
543.7  1232.5
543.6  1172.5
543.5  1197.5
543.4  1188.75
543.3  1170
543.2  1176.25
543.1  1106.25
543  1181.25
542.9  1205
542.8  1168.75
542.7  1233.75
542.6  1198.75
542.5  1163.75
542.4  1181.25
542.3  1227.5
542.2  1161.25
542.1  1230
542  1202.5
541.9  1212.5
541.8  1162.5
541.7  1177.5
541.6  1230
541.5  1252.5
541.4  1203.75
541.3  1267.5
541.2  1337.5
541.1  1310
541  1306.25
540.9  1363.75
540.8  1405
540.7  1498.75
540.6  1381.25
540.5  1460
540.4  1506.25
540.3  1453.75
540.2  1588.75
540.1  1683.75
540  1743.75
539.9  1718.75
539.8  1703.75
539.7  1903.75
539.6  1895
539.5  2048.75
539.4  2190
539.3  2316.25
539.2  2586.25
539.1  2757.5
539  2937.5
538.9  3262.5
538.8  3582.5
538.7  4130
538.6  4557.5
538.5  5066.25
538.4  5313.75
538.3  5915
538.2  6566.25
538.1  7288.75
538  7870
537.9  8703.75
537.8  9407.5
537.7  9670
537.6  10583.75
537.5  10852.5
537.4  11186.25
537.3  11555
537.2  11946.25
537.1  11827.5
537  11915
536.9  11595
536.8  11400
536.7  11006.25
536.6  10535
536.5  9786.25
536.4  9145
536.3  8507.5
536.2  7768.75
536.1  7031.25
536  6345
535.9  5736.25
535.8  4866.25
535.7  4700
535.6  4067.5
535.5  3603.75
535.4  3137.5
535.3  2840
535.2  2630
535.1  2328.75
535  2195
534.9  1933.75
534.8  1900
534.7  1812.5
534.6  1628.75
534.5  1623.75
534.4  1532.5
534.3  1415
534.2  1437.5
534.1  1355
534  1288.75
533.9  1318.75
533.8  1232.5
533.7  1290
533.6  1221.25
533.5  1270
533.4  1188.75
533.3  1217.5
533.2  1195
533.1  1151.25
533  1143.75
532.9  1126.25
532.8  1088.75
532.7  1147.5
532.6  1101.25
532.5  1141.25
532.4  1090
532.3  1087.5
532.2  1046.25
532.1  1182.5
532  1102.5
531.9  1120
531.8  1045
531.7  1077.5
531.6  1033.75
531.5  1018.75
531.4  990
531.3  1058.75
531.2  1070
531.1  1085
531  1070
530.9  1042.5
530.8  1011.25
530.7  1150
530.6  1046.25
530.5  1040
530.4  1048.75
530.3  1008.75
530.2  1086.25
530.1  1002.5
530  1056.25
529.9  1022.5
529.8  1002.5
529.7  1018.75
529.6  1051.25
529.5  1056.25
529.4  1008.75
529.3  1032.5
529.2  1111.25
529.1  1113.75
529  1135
528.9  1105
528.8  1220
528.7  1223.75
528.6  1290
528.5  1250
528.4  1391.25
528.3  1412.5
528.2  1486.25
528.1  1460
528  1607.5

# Region:            overview
# Acquisition Date:  01/11/22 09:51:18 UTC
# Analysis Method:   XPS
# Analyzer:          Phoibos 100 R6
# Analyzer Lens:     LargeArea:1.5kV
# Analyzer Slit:     1:0.2x20\B:open
# Scan Mode:         FixedAnalyzerTransmission
# Curves/Scan:       1
# Values/Curve:      1205
# Dwell Time:        0.2
# Excitation Energy: 1486.61
# Binding Energy:    1200
# Pass Energy:       50
# Bias Voltage:      90
# Detector Voltage:  2600
# Eff. Workfunction: 4.309
# Source:            X-Ray Dummy
# Comment:           
#
# Cycle: 0
# Number of Scans: 1
#
# Cycle: 0, Curve: 0
# Acquisition Date: 01/11/22 09:51:18 UTC
#
# ColumnLabels: energy counts/s
#
1200  8530
1199  8620
1198  8560
1197  8520
1196  8690
1195  8935
1194  8575
1193  8700
1192  8490
1191  8460
1190  8815
1189  8470
1188  8465
1187  8685
1186  8625
1185  8530
1184  8675
1183  8670
1182  8865
1181  8440
1180  8650
1179  8610
1178  8310
1177  8760
1176  8600
1175  8445
1174  8545
1173  8355
1172  8615
1171  8250
1170  8635
1169  8535
1168  8430
1167  8640
1166  8515
1165  8210
1164  8440
1163  8425
1162  8265
1161  8090
1160  8640
1159  8195
1158  8680
1157  8360
1156  8435
1155  8740
1154  8015
1153  8735
1152  8415
1151  8445
1150  8590
1149  8805
1148  8470
1147  8520
1146  8665
1145  8385
1144  8200
1143  8440
1142  8390
1141  8610
1140  8115
1139  8485
1138  8465
1137  8390
1136  8380
1135  8315
1134  8245
1133  8655
1132  8470
1131  8420
1130  8560
1129  8425
1128  8560
1127  8310
1126  8405
1125  8380
1124  8160
1123  8285
1122  8250
1121  8445
1120  8375
1119  8450
1118  7940
1117  8775
1116  8385
1115  8245
1114  8470
1113  8515
1112  8310
1111  8315
1110  8305
1109  8260
1108  8180
1107  8405
1106  8450
1105  8295
1104  8020
1103  8365
1102  8535
1101  8500
1100  8190
1099  8380
1098  8480
1097  7965
1096  8480
1095  8600
1094  8540
1093  8550
1092  8770
1091  8390
1090  7965
1089  8400
1088  8690
1087  8865
1086  8255
1085  9005
1084  8795
1083  8340
1082  8275
1081  8530
1080  8420
1079  8440
1078  8095
1077  8575
1076  8625
1075  8440
1074  8715
1073  8455
1072  8435
1071  8415
1070  8540
1069  8645
1068  8450
1067  8605
1066  8715
1065  8420
1064  8775
1063  8705
1062  8580
1061  8605
1060  8670
1059  8345
1058  8545
1057  8465
1056  8860
1055  8615
1054  8570
1053  8300
1052  8870
1051  8550
1050  8225
1049  9055
1048  8440
1047  8505
1046  8520
1045  8535
1044  8840
1043  8875
1042  8560
1041  8670
1040  8565
1039  8560
1038  8380
1037  8495
1036  8500
1035  8660
1034  8820
1033  8725
1032  8710
1031  9200
1030  9005
1029  8765
1028  8925
1027  8745
1026  9295
1025  8515
1024  8930
1023  9035
1022  9130
1021  9365
1020  9005
1019  9135
1018  8395
1017  9060
1016  8860
1015  9075
1014  8740
1013  8535
1012  9030
1011  9200
1010  9670
1009  9555
1008  10275
1007  9785
1006  10210
1005  9880
1004  9915
1003  9000
1002  9075
1001  9395
1000  9300
999  8900
998  8850
997  8520
996  8490
995  8800
994  8260
993  8795
992  8745
991  8855
990  9145
989  9700
988  10765
987  10490
986  11680
985  12010
984  12330
983  11375
982  10930
981  9480
980  9055
979  8965
978  8280
977  7815
976  7320
975  7395
974  6800
973  6135
972  6605
971  6425
970  6500
969  5830
968  6190
967  5895
966  5885
965  5835
964  6070
963  5625
962  5870
961  5685
960  6090
959  5670
958  5695
957  5915
956  5925
955  6025
954  5760
953  5815
952  5910
951  5850
950  5795
949  5810
948  5895
947  5850
946  5905
945  5755
944  6010
943  6030
942  6235
941  5865
940  5755
939  5635
938  5715
937  5750
936  5750
935  5610
934  5980
933  5645
932  5935
931  5715
930  5975
929  5820
928  6010
927  5650
926  5830
925  6050
924  5850
923  5800
922  5890
921  6445
920  5765
919  5795
918  5925
917  5775
916  5730
915  5915
914  6215
913  5825
912  5770
911  6110
910  6155
909  5920
908  6110
907  6105
906  5885
905  5875
904  6545
903  5740
902  6050
901  5885
900  5750
899  6020
898  6005
897  6195
896  5535
895  5990
894  5835
893  5960
892  5950
891  5805
890  5995
889  6195
888  5750
887  5980
886  5825
885  5920
884  5815
883  5965
882  6185
881  5725
880  5805
879  5620
878  6035
877  5925
876  5880
875  6040
874  5695
873  5725
872  5900
871  6035
870  5715
869  6130
868  5730
867  5940
866  6030
865  5665
864  5765
863  6135
862  6055
861  6285
860  5930
859  5905
858  6230
857  5955
856  5720
855  5890
854  5775
853  6030
852  5970
851  6055
850  6215
849  6090
848  5930
847  5840
846  5715
845  5890
844  6060
843  5645
842  5875
841  5970
840  6045
839  5740
838  5955
837  6210
836  5615
835  5935
834  5770
833  5855
832  5690
831  6145
830  5835
829  5865
828  5740
827  5855
826  5745
825  5910
824  6025
823  5605
822  6040
821  5770
820  5905
819  6230
818  5745
817  5980
816  5860
815  5810
814  5755
813  6005
812  6055
811  5935
810  5905
809  5910
808  5800
807  5870
806  5950
805  5965
804  5930
803  5865
802  5885
801  6045
800  5795
799  6185
798  6025
797  5395
796  5940
795  6145
794  5915
793  5820
792  5565
791  5725
790  5950
789  5785
788  6020
787  5590
786  5660
785  6015
784  6115
783  5970
782  5690
781  6100
780  6105
779  6020
778  5805
777  5605
776  6160
775  5645
774  5695
773  6050
772  6220
771  6695
770  5975
769  5695
768  5780
767  6055
766  5865
765  6200
764  5885
763  5700
762  5770
761  5830
760  6075
759  6050
758  5975
757  6120
756  6060
755  5845
754  5700
753  5775
752  6300
751  5730
750  5950
749  6335
748  5585
747  6045
746  6120
745  6035
744  6120
743  5640
742  6150
741  5905
740  6040
739  5740
738  5830
737  5680
736  5915
735  6120
734  5795
733  6200
732  5840
731  6095
730  5915
729  5930
728  6155
727  6490
726  6145
725  6365
724  6450
723  5855
722  6310
721  6255
720  6085
719  5960
718  5960
717  5955
716  5900
715  6030
714  5835
713  5915
712  5755
711  5765
710  6195
709  5885
708  6200
707  5840
706  6060
705  6160
704  6145
703  6485
702  5940
701  6335
700  6180
699  6255
698  6305
697  5985
696  6040
695  6170
694  6220
693  6080
692  6375
691  6015
690  6080
689  6230
688  6035
687  6200
686  5895
685  5905
684  6165
683  6250
682  6240
681  6125
680  6325
679  6065
678  6520
677  6370
676  5795
675  6205
674  6380
673  6040
672  6270
671  5780
670  5875
669  6110
668  6125
667  6510
666  6540
665  6265
664  6175
663  6240
662  6110
661  5735
660  6265
659  6475
658  6230
657  6480
656  6345
655  6185
654  6460
653  6145
652  6205
651  6470
650  6355
649  6685
648  6450
647  6030
646  6275
645  6350
644  6300
643  6165
642  6330
641  6160
640  6455
639  6340
638  6365
637  6330
636  6605
635  6450
634  5815
633  6265
632  6575
631  6500
630  6280
629  6310
628  6245
627  6555
626  6230
625  6470
624  6465
623  6165
