# Created by:        SpecsLab Prodigy, Version 4.60.2-r85849 
#
# XY-Serializer Export Settings:
#   Comment Prefix:           #
#   Output meta data:         yes
#   Energy Axis:              Binding Energy
#   Count Rate:               Counts per Second
#   Separate Scan Data:       no
#   Separate Channel Data:    no
#   External Channel Data:    yes
#   Transmission Function:    no
#   ErrorBar:                 no
#   Operation Results:        yes
#   Time Zone Format:         UTC
#
# Group:             Spectrum Group
#
# Region:            Ba3d (2)
# Acquisition Date:  01/11/22 17:22:25 UTC
# Analysis Method:   XPS
# Analyzer:          Phoibos 100 R6
# Analyzer Lens:     LargeArea:1.5kV
# Analyzer Slit:     1:0.2x20\B:open
# Scan Mode:         FixedAnalyzerTransmission
# Curves/Scan:       1
# Values/Curve:      111
# Dwell Time:        0.8
# Excitation Energy: 1486.61
# Binding Energy:    786
# Pass Energy:       30
# Bias Voltage:      90
# Detector Voltage:  2600
# Eff. Workfunction: 4.309
# Source:            X-Ray Dummy
# Comment:           
#
# Cycle: 0
# Number of Scans: 1
#
# Cycle: 0, Curve: 0
# Acquisition Date: 01/11/22 17:22:25 UTC
#
# ColumnLabels: energy counts/s
#
786  5932.5
785.9  6310
785.8  6900
785.7  7210
785.6  7888.75
785.5  8281.25
785.4  8798.75
785.3  9303.75
785.2  9955
785.1  10450
785  10633.75
784.9  10892.5
784.8  11333.75
784.7  11105
784.6  11552.5
784.5  11302.5
784.4  10845
784.3  10636.25
784.2  10205
784.1  9700
784  9181.25
783.9  8775
783.8  8091.25
783.7  7396.25
783.6  6725
783.5  6361.25
783.4  5665
783.3  5375
783.2  5062.5
783.1  4622.5
783  4488.75
782.9  4025
782.8  3931.25
782.7  3806.25
782.6  3830
782.5  3483.75
782.4  3462.5
782.3  3403.75
782.2  3173.75
782.1  3212.5
782  3083.75
781.9  2930
781.8  3033.75
781.7  2923.75
781.6  2977.5
781.5  2963.75
781.4  2887.5
781.3  2901.25
781.2  2898.75
781.1  2893.75
781  2845
780.9  2768.75
780.8  2703.75
780.7  2772.5
780.6  2716.25
780.5  2732.5
780.4  2648.75
780.3  2657.5
780.2  2621.25
780.1  2552.5
780  2722.5
779.9  2570
779.8  2678.75
779.7  2532.5
779.6  2520
779.5  2482.5
779.4  2565
779.3  2563.75
779.2  2537.5
779.1  2487.5
779  2457.5
778.9  2441.25
778.8  2520
778.7  2401.25
778.6  2400
778.5  2388.75
778.4  2438.75
778.3  2377.5
778.2  2460
778.1  2393.75
778  2423.75
777.9  2412.5
777.8  2448.75
777.7  2328.75
777.6  2500
777.5  2375
777.4  2378.75
777.3  2431.25
777.2  2430
777.1  2440
777  2410
776.9  2391.25
776.8  2503.75
776.7  2452.5
776.6  2343.75
776.5  2605
776.4  2556.25
776.3  2516.25
776.2  2532.5
776.1  2613.75
776  2647.5
775.9  2678.75
775.8  2706.25
775.7  2708.75
775.6  2708.75
775.5  2877.5
775.4  2871.25
775.3  2897.5
775.2  2917.5
775.1  2862.5
775  2846.25

# Region:            Ba3d
# Acquisition Date:  01/11/22 17:48:52 UTC
# Analysis Method:   XPS
# Analyzer:          Phoibos 100 R6
# Analyzer Lens:     LargeArea:1.5kV
# Analyzer Slit:     1:0.2x20\B:open
# Scan Mode:         FixedAnalyzerTransmission
# Curves/Scan:       1
# Values/Curve:      101
# Dwell Time:        0.8
# Excitation Energy: 1486.61
# Binding Energy:    790
# Pass Energy:       30
# Bias Voltage:      90
# Detector Voltage:  2600
# Eff. Workfunction: 4.309
# Source:            X-Ray Dummy
# Comment:           
#
# Cycle: 0
# Number of Scans: 3
#
# Cycle: 0, Curve: 0
# Acquisition Date: 01/11/22 17:48:52 UTC
#
# ColumnLabels: energy counts/s
#
790  3208.3333
789.9  3163.3333
789.8  3146.6667
789.7  3147.9167
789.6  3112.9167
789.5  3133.75
789.4  3152.9167
789.3  3047.9167
789.2  3064.5833
789.1  3046.25
789  3087.0833
788.9  3045
788.8  3061.25
788.7  3092.0833
788.6  3100
788.5  3085
788.4  3132.0833
788.3  3141.25
788.2  3175
788.1  3153.75
788  3152.5
787.9  3199.5833
787.8  3202.9167
787.7  3273.75
787.6  3219.5833
787.5  3258.75
787.4  3367.0833
787.3  3375.8333
787.2  3544.1667
787.1  3522.0833
787  3600
786.9  3808.75
786.8  3812.0833
786.7  3982.0833
786.6  4230.8333
786.5  4400.8333
786.4  4587.0833
786.3  4900
786.2  5234.5833
786.1  5643.75
786  5921.6667
785.9  6374.1667
785.8  6759.1667
785.7  7269.1667
785.6  7822.5
785.5  8457.9167
785.4  8793.75
785.3  9359.5833
785.2  9707.9167
785.1  10144.583
785  10738.333
784.9  10750
784.8  10948.75
784.7  11148.333
784.6  11043.75
784.5  11111.25
784.4  10825
784.3  10543.333
784.2  10081.25
784.1  9577.0833
784  8949.5833
783.9  8592.0833
783.8  7870
783.7  7326.6667
783.6  6868.75
783.5  6319.5833
783.4  5863.3333
783.3  5439.1667
783.2  5070.8333
783.1  4715
783  4371.25
782.9  4152.0833
782.8  3874.5833
782.7  3820.8333
782.6  3635.4167
782.5  3429.5833
782.4  3318.3333
782.3  3243.75
782.2  3170.4167
782.1  3246.25
782  3119.1667
781.9  3080.4167
781.8  3033.3333
781.7  2953.75
781.6  2957.0833
781.5  2928.3333
781.4  2916.25
781.3  2850.4167
781.2  2848.3333
781.1  2789.1667
781  2730.8333
780.9  2730.4167
780.8  2700
780.7  2732.0833
780.6  2751.6667
780.5  2648.3333
780.4  2679.1667
780.3  2694.1667
780.2  2596.6667
780.1  2665.8333
780  2569.1667

# Region:            Cl2p
# Acquisition Date:  01/11/22 17:25:02 UTC
# Analysis Method:   XPS
# Analyzer:          Phoibos 100 R6
# Analyzer Lens:     LargeArea:1.5kV
# Analyzer Slit:     1:0.2x20\B:open
# Scan Mode:         FixedAnalyzerTransmission
# Curves/Scan:       1
# Values/Curve:      91
# Dwell Time:        0.8
# Excitation Energy: 1486.61
# Binding Energy:    204
# Pass Energy:       30
# Bias Voltage:      90
# Detector Voltage:  2600
# Eff. Workfunction: 4.309
# Source:            X-Ray Dummy
# Comment:           
#
# Cycle: 0
# Number of Scans: 1
#
# Cycle: 0, Curve: 0
# Acquisition Date: 01/11/22 17:25:02 UTC
#
# ColumnLabels: energy counts/s
#
204  1253.75
203.9  1222.5
203.8  1296.25
203.7  1277.5
203.6  1285
203.5  1268.75
203.4  1351.25
203.3  1327.5
203.2  1352.5
203.1  1402.5
203  1365
202.9  1403.75
202.8  1453.75
202.7  1505
202.6  1518.75
202.5  1565
202.4  1521.25
202.3  1560
202.2  1446.25
202.1  1413.75
202  1495
201.9  1418.75
201.8  1328.75
201.7  1292.5
201.6  1243.75
201.5  1132.5
201.4  1107.5
201.3  975
201.2  1068.75
201.1  986.25
201  968.75
200.9  902.5
200.8  905
200.7  885
200.6  843.75
200.5  812.5
200.4  783.75
200.3  790
200.2  805
200.1  755
200  786.25
199.9  795
199.8  741.25
199.7  745
199.6  791.25
199.5  762.5
199.4  795
199.3  765
199.2  772.5
199.1  807.5
199  767.5
198.9  758.75
198.8  777.5
198.7  771.25
198.6  706.25
198.5  782.5
198.4  701.25
198.3  712.5
198.2  800
198.1  812.5
198  786.25
197.9  768.75
197.8  732.5
197.7  753.75
197.6  837.5
197.5  735
197.4  836.25
197.3  852.5
197.2  763.75
197.1  791.25
197  827.5
196.9  795
196.8  817.5
196.7  818.75
196.6  793.75
196.5  770
196.4  818.75
196.3  795
196.2  808.75
196.1  721.25
196  822.5
195.9  808.75
195.8  750
195.7  752.5
195.6  791.25
195.5  767.5
195.4  757.5
195.3  710
195.2  815
195.1  795
195  768.75

# Region:            Cl2p (2)
# Acquisition Date:  01/11/22 18:30:22 UTC
# Analysis Method:   XPS
# Analyzer:          Phoibos 100 R6
# Analyzer Lens:     LargeArea:1.5kV
# Analyzer Slit:     1:0.2x20\B:open
# Scan Mode:         FixedAnalyzerTransmission
# Curves/Scan:       1
# Values/Curve:      91
# Dwell Time:        0.8
# Excitation Energy: 1486.61
# Binding Energy:    207
# Pass Energy:       30
# Bias Voltage:      90
# Detector Voltage:  2600
# Eff. Workfunction: 4.309
# Source:            X-Ray Dummy
# Comment:           
#
# Cycle: 0
# Number of Scans: 9
#
# Cycle: 0, Curve: 0
# Acquisition Date: 01/11/22 18:30:22 UTC
#
# ColumnLabels: energy counts/s
#
207  791.38889
206.9  779.16667
206.8  786.52778
206.7  775.55556
206.6  771.52778
206.5  778.05556
206.4  776.11111
206.3  783.88889
206.2  801.11111
206.1  807.22222
206  815
205.9  799.44444
205.8  814.30556
205.7  797.91667
205.6  829.02778
205.5  821.25
205.4  855.97222
205.3  875.97222
205.2  895.83333
205.1  919.44444
205  946.25
204.9  948.47222
204.8  973.47222
204.7  1013.3333
204.6  1070.8333
204.5  1070.5556
204.4  1106.8056
204.3  1144.0278
204.2  1184.4444
204.1  1184.8611
204  1205.5556
203.9  1225.1389
203.8  1255
203.7  1281.1111
203.6  1317.3611
203.5  1306.8056
203.4  1350.9722
203.3  1344.0278
203.2  1350.9722
203.1  1352.0833
203  1423.1944
202.9  1454.4444
202.8  1456.25
202.7  1505.9722
202.6  1477.6389
202.5  1504.4444
202.4  1494.1667
202.3  1511.1111
202.2  1511.25
202.1  1484.7222
202  1432.0833
201.9  1412.0833
201.8  1361.9444
201.7  1317.9167
201.6  1268.1944
201.5  1197.9167
201.4  1134.7222
201.3  1072.0833
201.2  1037.0833
201.1  986.25
201  923.61111
200.9  905.13889
200.8  879.16667
200.7  851.52778
200.6  842.5
200.5  823.19444
200.4  795.41667
200.3  800.97222
200.2  780.83333
200.1  780.55556
200  772.36111
199.9  771.80556
199.8  770.41667
199.7  771.11111
199.6  754.72222
199.5  781.52778
199.4  750
199.3  757.08333
199.2  725.69444
199.1  762.77778
199  720.41667
198.9  757.22222
198.8  758.75
198.7  760.97222
198.6  756.66667
198.5  765.55556
198.4  749.86111
198.3  744.30556
198.2  760
198.1  768.33333
198  782.5

# Region:            C1s
# Acquisition Date:  01/11/22 18:24:20 UTC
# Analysis Method:   XPS
# Analyzer:          Phoibos 100 R6
# Analyzer Lens:     LargeArea:1.5kV
# Analyzer Slit:     1:0.2x20\B:open
# Scan Mode:         FixedAnalyzerTransmission
# Curves/Scan:       1
# Values/Curve:      131
# Dwell Time:        0.8
# Excitation Energy: 1486.61
# Binding Energy:    295
# Pass Energy:       30
# Bias Voltage:      90
# Detector Voltage:  2600
# Eff. Workfunction: 4.309
# Source:            X-Ray Dummy
# Comment:           
#
# Cycle: 0
# Number of Scans: 8
#
# Cycle: 0, Curve: 0
# Acquisition Date: 01/11/22 18:24:20 UTC
#
# ColumnLabels: energy counts/s
#
295  811.5625
294.9  824.21875
294.8  822.65625
294.7  812.96875
294.6  847.96875
294.5  818.4375
294.4  823.75
294.3  837.34375
294.2  830.46875
294.1  829.0625
294  821.40625
293.9  822.5
293.8  825.78125
293.7  824.6875
293.6  838.125
293.5  822.96875
293.4  830
293.3  832.96875
293.2  877.03125
293.1  869.53125
293  858.28125
292.9  846.25
292.8  875.78125
292.7  894.84375
292.6  865.3125
292.5  874.84375
292.4  895.3125
292.3  912.03125
292.2  918.75
292.1  942.5
292  956.5625
291.9  939.84375
291.8  985
291.7  1006.875
291.6  1040
291.5  1037.6563
291.4  1042.1875
291.3  1080.1563
291.2  1122.3438
291.1  1128.9063
291  1146.0938
290.9  1189.375
290.8  1163.2813
290.7  1213.9063
290.6  1232.8125
290.5  1233.75
290.4  1247.5
290.3  1228.9063
290.2  1259.2188
290.1  1262.5
290  1275.1563
289.9  1257.6563
289.8  1288.75
289.7  1307.3438
289.6  1283.2813
289.5  1302.3438
289.4  1314.2188
289.3  1295.1563
289.2  1291.4063
289.1  1302.1875
289  1299.8438
288.9  1273.5938
288.8  1254.8438
288.7  1279.0625
288.6  1238.75
288.5  1203.2813
288.4  1186.7188
288.3  1166.875
288.2  1118.5938
288.1  1093.2813
288  1043.75
287.9  1039.5313
287.8  990.15625
287.7  973.28125
287.6  965.625
287.5  940.78125
287.4  914.0625
287.3  890.625
287.2  890.15625
287.1  862.96875
287  829.375
286.9  828.90625
286.8  820.78125
286.7  808.59375
286.6  801.5625
286.5  787.5
286.4  783.59375
286.3  770
286.2  780.46875
286.1  795.15625
286  784.6875
285.9  797.96875
285.8  782.5
285.7  775.78125
285.6  787.34375
285.5  786.09375
285.4  785.9375
285.3  780
285.2  789.375
285.1  781.40625
285  779.6875
284.9  768.4375
284.8  800.3125
284.7  787.96875
284.6  790
284.5  786.5625
284.4  769.84375
284.3  780.625
284.2  781.71875
284.1  782.65625
284  790.46875
283.9  785.46875
283.8  772.1875
283.7  769.0625
283.6  784.53125
283.5  779.53125
283.4  789.375
283.3  780.46875
283.2  775.3125
283.1  778.125
283  776.71875
282.9  792.65625
282.8  768.90625
282.7  772.96875
282.6  800.46875
282.5  794.0625
282.4  785.3125
282.3  764.84375
282.2  776.71875
282.1  770.78125
282  828.125

# Region:            N1s
# Acquisition Date:  01/11/22 18:41:01 UTC
# Analysis Method:   XPS
# Analyzer:          Phoibos 100 R6
# Analyzer Lens:     LargeArea:1.5kV
# Analyzer Slit:     1:0.2x20\B:open
# Scan Mode:         FixedAnalyzerTransmission
# Curves/Scan:       1
# Values/Curve:      131
# Dwell Time:        0.8
# Excitation Energy: 1486.61
# Binding Energy:    408
# Pass Energy:       30
# Bias Voltage:      90
# Detector Voltage:  2600
# Eff. Workfunction: 4.309
# Source:            X-Ray Dummy
# Comment:           
#
# Cycle: 0
# Number of Scans: 15
#
# Cycle: 0, Curve: 0
# Acquisition Date: 01/11/22 18:41:01 UTC
#
# ColumnLabels: energy counts/s
#
408  771.83333
407.9  764.25
407.8  785.08333
407.7  781.66667
407.6  757.58333
407.5  772.5
407.4  780.33333
407.3  766.33333
407.2  783.16667
407.1  789.58333
407  774.33333
406.9  773.58333
406.8  775.5
406.7  783.25
406.6  776.91667
406.5  787.91667
406.4  781.08333
406.3  788.58333
406.2  774.58333
406.1  797.41667
406  786.66667
405.9  790.16667
405.8  803.16667
405.7  796.5
405.6  798.33333
405.5  804.5
405.4  796.75
405.3  816.75
405.2  816.66667
405.1  827.58333
405  838.5
404.9  834.66667
404.8  847.58333
404.7  845.58333
404.6  849.5
404.5  838.5
404.4  847.41667
404.3  853.91667
404.2  851.91667
404.1  858.16667
404  861.41667
403.9  864.08333
403.8  862.33333
403.7  861.58333
403.6  853.75
403.5  864.58333
403.4  858.91667
403.3  856.83333
403.2  858.25
403.1  868.33333
403  850.5
402.9  841.08333
402.8  847.83333
402.7  843.41667
402.6  838.41667
402.5  833.58333
402.4  813.33333
402.3  814.5
402.2  821.58333
402.1  826.75
402  800.75
401.9  801.41667
401.8  785.5
401.7  790.66667
401.6  785.5
401.5  797.25
401.4  782.41667
401.3  780.5
401.2  780.5
401.1  781.08333
401  760.41667
400.9  765.58333
400.8  784.16667
400.7  774.08333
400.6  767.91667
400.5  774.66667
400.4  759
400.3  767.08333
400.2  767.41667
400.1  780.75
400  770.41667
399.9  771.75
399.8  777.16667
399.7  770.5
399.6  751.91667
399.5  772.66667
399.4  769
399.3  776.83333
399.2  766.5
399.1  753.33333
399  769.08333
398.9  757
398.8  761.41667
398.7  766.83333
398.6  759.75
398.5  768.5
398.4  757.08333
398.3  754.41667
398.2  755.33333
398.1  763.66667
398  756.66667
397.9  763.83333
397.8  767
397.7  767.25
397.6  769.41667
397.5  759.91667
397.4  750.16667
397.3  777.41667
397.2  767.66667
397.1  753.08333
397  760.58333
396.9  756.5
396.8  752
396.7  761.66667
396.6  750.33333
396.5  756.33333
396.4  774.16667
396.3  765.33333
396.2  763
396.1  777.58333
396  757.25
395.9  772.66667
395.8  758.75
395.7  759.75
395.6  763.41667
395.5  759.83333
395.4  765.25
395.3  759.41667
395.2  759.08333
395.1  778.16667
395  768.58333

# Region:            Si2p
# Acquisition Date:  01/11/22 18:04:37 UTC
# Analysis Method:   XPS
# Analyzer:          Phoibos 100 R6
# Analyzer Lens:     LargeArea:1.5kV
# Analyzer Slit:     1:0.2x20\B:open
# Scan Mode:         FixedAnalyzerTransmission
# Curves/Scan:       1
# Values/Curve:      141
# Dwell Time:        0.8
# Excitation Energy: 1486.61
# Binding Energy:    112
# Pass Energy:       30
# Bias Voltage:      90
# Detector Voltage:  2600
# Eff. Workfunction: 4.309
# Source:            X-Ray Dummy
# Comment:           
#
# Cycle: 0
# Number of Scans: 4
#
# Cycle: 0, Curve: 0
# Acquisition Date: 01/11/22 18:04:37 UTC
#
# ColumnLabels: energy counts/s
#
112  457.5
111.9  450
111.8  472.8125
111.7  444.375
111.6  479.6875
111.5  476.5625
111.4  480
111.3  459.6875
111.2  493.4375
111.1  469.375
111  457.8125
110.9  480
110.8  519.0625
110.7  457.5
110.6  469.0625
110.5  496.5625
110.4  460
110.3  497.1875
110.2  498.4375
110.1  505.9375
110  510.625
109.9  517.1875
109.8  532.5
109.7  543.125
109.6  584.0625
109.5  539.375
109.4  618.125
109.3  586.25
109.2  650
109.1  674.375
109  713.4375
108.9  706.5625
108.8  765.9375
108.7  837.1875
108.6  862.5
108.5  910.9375
108.4  976.5625
108.3  1019.0625
108.2  1078.75
108.1  1141.25
108  1196.25
107.9  1235.3125
107.8  1281.875
107.7  1280.625
107.6  1362.1875
107.5  1348.125
107.4  1351.875
107.3  1365
107.2  1342.1875
107.1  1352.8125
107  1260.625
106.9  1288.4375
106.8  1235.9375
106.7  1172.1875
106.6  1161.5625
106.5  1112.5
106.4  1032.8125
106.3  981.25
106.2  920.9375
106.1  875
106  818.4375
105.9  754.6875
105.8  727.1875
105.7  701.875
105.6  693.75
105.5  662.5
105.4  620.9375
105.3  583.125
105.2  581.5625
105.1  535.625
105  526.5625
104.9  513.75
104.8  520.9375
104.7  507.1875
104.6  492.1875
104.5  517.1875
104.4  511.875
104.3  478.75
104.2  467.8125
104.1  494.6875
104  460
103.9  484.0625
103.8  479.375
103.7  473.125
103.6  472.8125
103.5  462.8125
103.4  458.75
103.3  440.625
103.2  460.625
103.1  471.875
103  446.5625
102.9  450.3125
102.8  451.25
102.7  452.8125
102.6  433.4375
102.5  431.5625
102.4  440
102.3  417.5
102.2  447.8125
102.1  414.0625
102  437.5
101.9  412.5
101.8  439.6875
101.7  439.6875
101.6  436.25
101.5  408.75
101.4  436.25
101.3  430.3125
101.2  420.9375
101.1  415
101  420.3125
100.9  420.3125
100.8  399.375
100.7  418.4375
100.6  411.5625
100.5  418.75
100.4  424.375
100.3  424.375
100.2  414.0625
100.1  427.1875
100  406.5625
99.9  412.1875
99.8  444.6875
99.7  430.3125
99.6  431.25
99.5  446.25
99.4  442.5
99.3  435
99.2  441.25
99.1  447.5
99  444.0625
98.9  449.0625
98.8  467.8125
98.7  490.625
98.6  506.25
98.5  522.1875
98.4  553.4375
98.3  557.1875
98.2  601.5625
98.1  601.875
98  662.5

# Operation:         Si2p
# Range Start:       111.43
# Range End:         98
# Parameter: "Transition" = Si2p
# Parameter: "Label" = 
# Parameter: "Background Method" = Tougaard
# Parameter: "Peak Shape" = Voigt
# Parameter: "Asymmetric Peak" = false
# Parameter: "FWHM-Annotation" = S-B = <Signal-BG:@>\nFWHM = <FWHM:@>\nArea = <Area:@>
# Parameter: "Peak-Annotation" = <Label>\n<Transition>\nE = <Center:@>
#
# Result:
# Number of Results: 2
# Parameter: "Transition" = Si2p
# Parameter: "Label" = 
# Parameter: "Center" = 107.33833511676153 eV +- 0.0068739941127660131
# Parameter: "Area" = 2522.4190464871099 cps eV +- 42.701844113915513
# Parameter: "FWHM Lorentzian" = 0.48000640531028171 eV +- 0.083724715943631872
# Parameter: "FWHM Gaussian" = 2.1262347581559351 eV +- 0.057698716696305656
# Parameter: "Asymmetry" = 0 +- 0
# Parameter: "Tougaard B" = 4022.0134515997556 eV^2 +- 1290.688332205611
# Parameter: "Tougaard C" = 1643 eV^2 +- 0
# Parameter: "FWHM" = 2.3945495998766977 eV
# Parameter: "Offset (0th order)" = 443.71064372413662 cps +- 2.174915381964837
# Parameter: "Abbe factor" = 0.20564849515568509
# Parameter: "Reduced Chi Square" = 7.7323747677019554
# Parameter: "Q Probability" = 3.9321797869236008e-133
# Parameter: "Number of performed iterations" = 12
# Parameter: "Fit termination reason" = ConvergedInChi
# Parameter: "Signal" = 1358.1174939891919 cps
# Parameter: "Signal-BG" = 912.55025843621991 cps
#
# Result Name:       Background
# Number of Curves:  1
#
# Curve:             0
# Values/Curve:      113
#
111.4  458.4827
111.28036  458.06814
111.16071  457.65277
111.04107  457.23665
110.92143  456.81983
110.80179  456.40239
110.68214  455.9844
110.5625  455.56594
110.44286  455.14713
110.32321  454.72805
110.20357  454.30886
110.08393  453.8897
109.96429  453.47075
109.84464  453.05224
109.725  452.63444
109.60536  452.21766
109.48571  451.80232
109.36607  451.38886
109.24643  450.97786
109.12679  450.56997
109.00714  450.16597
108.8875  449.76673
108.76786  449.37326
108.64821  448.98667
108.52857  448.60819
108.40893  448.23911
108.28929  447.8808
108.16964  447.53465
108.05  447.20205
107.93036  446.88432
107.81071  446.5827
107.69107  446.29826
107.57143  446.03191
107.45179  445.78431
107.33214  445.55589
107.2125  445.34677
107.09286  445.15683
106.97321  444.98566
106.85357  444.8326
106.73393  444.69677
106.61429  444.5771
106.49464  444.4724
106.375  444.38135
106.25536  444.30261
106.13571  444.23482
106.01607  444.17666
105.89643  444.12687
105.77679  444.08427
105.65714  444.0478
105.5375  444.0165
105.41786  443.98953
105.29821  443.96618
105.17857  443.94582
105.05893  443.92795
104.93929  443.91213
104.81964  443.89802
104.7  443.88532
104.58036  443.87382
104.46071  443.86333
104.34107  443.85369
